TimeStamp,P3,P4,F3,F4,FP1,I1,I2,FP2
1389506.5051,2766.56,15887.98,37129.22,38789.94,26247.65,29181.15,15587.24,8315.14
1389506.5071,1976.87,15883.11,37129.93,38820.46,26258.04,29101.66,15413.95,8333.73
1389506.5091,1345.83,15852.26,37141.28,38863.09,26280.26,29062.7,15213.16,8359.1
1389506.5111,1344.97,15857.13,37170.37,38904.67,26311.31,29096.99,15133.67,8389.09
1389506.5131,1806.07,15856.12,37169.75,38874.96,26303.63,29142.14,15187.79,8376.5
1389506.5151,2354.67,15840.44,37164.84,38833.53,26292.37,29198.32,15320.83,8353.81
1389506.5171,2914.48,15843.3,37148.77,38794.9,26272.01,29233.27,15481.95,8318.85
1389506.5191,3108.84,15839.24,37123.73,38760.52,26243.98,29201.65,15586.71,8289.48
1389506.5211,2943.18,15870.81,37115.72,38769.39,26233.87,29184.39,15606.69,8289.0
1389506.5231,2255.01,15890.03,37123.97,38810.26,26242.21,29130.41,15486.29,8310.51
1389506.5251,1513.77,15871.1,37137.37,38856.89,26268.72,29073.53,15283.59,8338.74
1389506.5271,1262.71,15852.98,37164.6,38893.75,26300.48,29064.56,15144.16,8364.15
1389506.5291,1637.55,15861.18,37179.19,38884.6,26307.87,29104.19,15155.41,8360.34
1389506.5311,2160.36,15842.96,37180.33,38848.12,26303.91,29153.88,15259.41,8342.79
1389506.5331,2760.22,15844.54,37166.98,38811.5,26286.51,29201.08,15418.01,8334.3
1389506.5351,3101.3,15846.16,37145.81,38780.03,26262.57,29222.83,15556.81,8322.05
1389506.5371,3068.35,15860.23,37123.83,38763.77,26237.25,29201.22,15614.37,8297.3
1389506.5391,2535.15,15885.74,37117.1,38790.9,26237.16,29158.21,15542.94,8286.05
1389506.5411,1728.2,15866.52,37119.06,38828.85,26251.51,29083.02,15331.79,8288.1
1389506.5431,1251.13,15831.42,37139.61,38866.62,26275.78,29047.21,15153.31,8323.48
1389506.5451,1471.09,15852.31,37165.79,38890.22,26294.52,29076.87,15137.86,8352.52
1389506.5471,1972.77,15847.92,37175.37,38877.01,26298.96,29126.55,15234.14,8362.1
1389506.5491,2560.66,15836.57,37164.5,38842.11,26281.74,29175.24,15365.46,8340.98
1389506.5511,3037.79,15852.55,37156.06,38816.08,26270.92,29237.13,15519.29,8333.83
1389506.5531,3160.67,15892.84,37159.97,38818.65,26272.68,29272.94,15636.4,8346.22
1389506.5551,2786.06,15896.47,37127.69,38799.15,26236.2,29220.97,15595.01,8313.8
1389506.5571,1990.8,15879.11,37116.48,38804.25,26225.33,29157.93,15410.76,8297.87
1389506.5591,1342.11,15842.39,37128.64,38835.29,26246.69,29089.26,15203.91,8313.32
1389506.5611,1315.26,15833.86,37134.99,38841.63,26261.76,29049.02,15102.63,8325.05
1389506.5631,1762.53,15833.62,37140.9,38832.38,26265.96,29091.55,15153.84,8319.57
1389506.5651,2341.13,15837.1,37147.34,38829.19,26264.1,29156.59,15296.84,8304.26
1389506.5671,2900.79,15850.16,37139.18,38814.31,26259.04,29213.58,15472.18,8296.63
1389506.5691,3133.49,15859.84,37119.58,38770.68,26241.59,29212.53,15594.39,8287.1
1389506.5711,2943.56,15875.63,37108.04,38762.72,26230.62,29174.62,15615.27,8293.15
1389506.5731,2282.38,15901.23,37110.0,38797.62,26238.59,29129.94,15500.83,8309.51
1389506.5751,1515.53,15871.24,37123.88,38831.52,26259.0,29089.12,15290.55,8332.16
1389506.5771,1277.26,15855.93,37146.48,38865.0,26283.79,29079.97,15149.69,8360.67
1389506.5791,1618.43,15855.6,37159.92,38863.28,26298.62,29098.99,15151.88,8369.02
1389506.5811,2164.89,15849.83,37161.69,38835.96,26294.14,29133.23,15255.36,8359.62
1389506.5831,2734.33,15847.11,37159.59,38797.91,26281.88,29187.3,15410.04,8341.93
1389506.5851,3116.04,15864.61,37149.58,38769.25,26266.29,29218.39,15558.39,8325.82
1389506.5871,3061.34,15873.39,37131.84,38768.44,26244.98,29198.84,15610.51,8307.36
1389506.5891,2565.29,15901.47,37124.59,38796.76,26231.48,29157.31,15541.6,8285.62
1389506.5911,1736.07,15891.03,37139.85,38843.97,26259.0,29108.15,15350.01,8305.22
1389506.5931,1293.47,15865.38,37158.45,38879.54,26290.61,29077.91,15174.68,8342.93
1389506.5951,1452.64,15856.74,37169.99,38886.36,26300.62,29083.68,15131.57,8357.91
1389506.5971,1988.65,15859.8,37180.81,38872.77,26307.2,29136.95,15226.51,8369.97
1389506.5991,2551.84,15854.74,37178.81,38843.3,26298.19,29189.64,15364.93,8359.86
1389506.6011,3046.66,15856.32,37152.72,38804.87,26259.0,29225.07,15513.66,8328.15
1389506.6031,3108.88,15856.17,37126.59,38772.02,26227.53,29224.11,15601.35,8303.36
1389506.6051,2790.55,15888.5,37117.44,38776.26,26215.79,29191.64,15579.18,8291.63
1389506.6071,1984.41,15885.45,37118.73,38803.68,26230.53,29106.95,15407.66,8290.01
1389506.6091,1367.52,15860.18,37139.71,38853.7,26263.19,29062.99,15210.87,8320.81
1389506.6111,1330.23,15863.09,37169.89,38905.34,26298.81,29088.69,15132.24,8356.72
1389506.6131,1821.61,15874.53,37185.82,38902.86,26314.4,29146.82,15207.82,8374.64
1389506.6151,2369.17,15871.57,37185.39,38867.19,26313.59,29197.51,15342.05,8368.59
1389506.6171,2947.0,15881.4,37176.18,38837.1,26299.86,29235.94,15501.74,8350.28
1389506.6191,3137.49,15869.09,37135.8,38791.66,26258.19,29230.93,15579.85,8304.45
1389506.6211,2963.59,15874.77,37112.62,38775.16,26227.76,29220.2,15599.11,8278.23
1389506.6231,2276.52,15888.98,37111.24,38780.12,26222.66,29162.22,15481.66,8284.95
1389506.6251,1517.49,15858.75,37128.36,38813.79,26244.45,29094.89,15265.8,8299.11
1389506.6271,1254.7,15843.68,37149.15,38857.61,26272.44,29069.24,15124.47,8320.05
1389506.6291,1609.75,15852.5,37165.93,38869.53,26296.19,29082.87,15137.86,8347.32
1389506.6311,2155.59,15859.18,37172.13,38846.02,26301.58,29126.84,15259.36,8359.86
1389506.6331,2742.1,15858.6,37166.7,38812.55,26289.42,29184.25,15422.06,8358.57
1389506.6351,3113.65,15865.95,37143.66,38777.4,26263.29,29214.91,15561.77,8334.11
1389506.6371,3068.73,15868.95,37127.88,38762.38,26247.7,29220.97,15617.09,8310.27
1389506.6391,2580.83,15907.53,37126.93,38794.52,26250.27,29190.73,15557.15,8306.84
1389506.6411,1762.1,15901.38,37148.38,38857.89,26279.88,29135.28,15368.61,8337.45
1389506.6431,1316.26,15889.79,37176.61,38909.49,26309.87,29097.99,15202.71,8357.29
1389506.6451,1463.6,15875.48,37187.29,38924.36,26313.74,29111.2,15147.59,8349.47
1389506.6471,1987.27,15869.48,37184.29,38903.96,26298.91,29150.16,15231.66,8351.33
1389506.6491,2535.01,15853.22,37171.13,38842.3,26282.12,29195.84,15368.94,8360.24
1389506.6511,3058.48,15874.2,37159.73,38790.28,26264.67,29235.8,15538.98,8348.08
1389506.6531,3097.82,15850.36,37119.2,38738.73,26226.29,29208.47,15605.83,8304.07
1389506.6551,2784.97,15873.72,37095.55,38738.78,26203.35,29174.38,15579.99,8274.03
1389506.6571,1976.54,15872.58,37104.99,38780.69,26223.38,29129.79,15403.75,8291.72
1389506.6591,1382.97,15865.23,37133.75,38844.21,26262.86,29115.63,15216.16,8328.68
1389506.6611,1318.07,15865.71,37167.6,38890.37,26301.86,29116.54,15123.51,8362.48
1389506.6631,1815.37,15878.77,37179.81,38891.99,26310.11,29126.93,15177.39,8366.35
1389506.6651,2321.39,15851.59,37165.17,38855.22,26293.04,29143.0,15289.74,8350.33
1389506.6671,2916.53,15858.18,37152.87,38813.55,26275.21,29194.5,15460.06,8328.63
1389506.6691,3118.56,15862.09,37134.08,38776.59,26255.99,29214.29,15583.47,8301.45
1389506.6711,2985.19,15881.68,37114.67,38770.2,26238.25,29169.94,15607.41,8279.04
1389506.6731,2271.6,15888.26,37113.77,38798.62,26236.11,29106.38,15482.95,8276.51
1389506.6751,1551.68,15880.01,37138.61,38852.17,26263.19,29066.38,15286.5,8308.65
1389506.6771,1251.17,15859.03,37165.41,38882.21,26291.66,29059.56,15143.83,8350.75
1389506.6791,1615.48,15854.31,37166.74,38861.9,26289.23,29090.6,15147.97,8358.86
1389506.6811,2109.38,15834.62,37154.11,38818.89,26274.11,29130.51,15245.87,8343.46
1389506.6831,2720.55,15833.19,37139.37,38782.55,26256.23,29166.03,15398.98,8308.94
1389506.6851,3073.17,15847.73,37125.5,38764.29,26246.12,29205.66,15556.62,8296.2
1389506.6871,3078.32,15874.82,37126.74,38779.22,26238.16,29216.25,15631.63,8298.83
1389506.6891,2555.61,15902.62,37123.11,38812.55,26234.2,29181.53,15552.19,8298.54
1389506.6911,1752.09,15883.5,37126.55,38843.02,26250.17,29117.16,15339.14,8319.05
1389506.6931,1250.46,15850.02,37140.28,38856.99,26277.5,29063.04,15157.42,8345.6
1389506.6951,1429.7,15846.3,37157.68,38863.9,26288.75,29073.34,15112.78,8350.66
1389506.6971,1937.25,15846.3,37163.36,38847.93,26281.74,29128.22,15197.47,8333.73
1389506.6991,2526.86,15840.58,37159.16,38819.65,26267.72,29181.87,15338.85,8324.96
1389506.7011,3017.33,15856.03,37146.91,38785.41,26251.32,29219.25,15499.74,8322.05
1389506.7031,3138.69,15878.39,37142.09,38775.16,26247.7,29239.8,15608.22,8320.38
1389506.7051,2825.69,15908.48,37127.74,38780.41,26241.02,29193.55,15596.44,8306.7
1389506.7071,2018.55,15894.51,37126.5,38808.97,26248.36,29105.09,15419.06,8299.97
1389506.7091,1365.61,15864.9,37143.76,38857.75,26272.25,29063.37,15220.45,8319.76
1389506.7111,1315.36,15857.36,37165.07,38889.6,26293.66,29075.91,15125.71,8354.86
1389506.7131,1787.47,15870.72,37175.8,38882.21,26300.86,29132.51,15184.55,8365.01
1389506.7151,2336.41,15857.22,37170.89,38857.94,26293.81,29192.02,15310.62,8356.19
1389506.7171,2901.65,15854.98,37146.72,38805.16,26262.38,29233.98,15463.64,8321.72
1389506.7191,3126.57,15857.84,37126.26,38777.74,26240.49,29257.16,15579.51,8288.77
1389506.7211,2988.67,15880.78,37112.19,38778.07,26231.39,29230.12,15614.23,8260.87
1389506.7231,2288.96,15877.01,37100.32,38797.24,26226.76,29126.36,15477.28,8264.45
1389506.7251,1524.26,15851.36,37118.82,38844.3,26248.27,29062.18,15272.62,8302.26
1389506.7271,1220.85,15817.69,37139.47,38861.66,26269.15,29063.85,15113.16,8332.25
1389506.729,1584.2,15830.71,37149.82,38846.69,26276.69,29111.2,15120.79,8354.33
1389506.731,2110.62,15825.94,37147.38,38817.27,26277.93,29146.1,15231.8,8362.34
1389506.733,2722.98,15832.04,37137.23,38785.18,26267.48,29159.84,15393.21,8342.7
1389506.735,3076.22,15834.95,37116.1,38750.03,26245.26,29147.29,15534.83,8308.51
1389506.737,3063.63,15851.07,37096.65,38739.16,26220.47,29145.67,15601.54,8287.57
1389506.739,2557.61,15877.53,37092.45,38764.67,26220.04,29127.22,15536.93,8290.96
1389506.741,1755.57,15874.44,37114.0,38815.22,26249.46,29083.26,15350.39,8322.67
1389506.743,1255.23,15844.49,37144.86,38859.56,26288.85,29065.66,15185.74,8363.01
1389506.745,1439.29,15849.88,37165.31,38881.69,26303.39,29093.46,15149.21,8368.02
1389506.747,1938.2,15848.3,37173.04,38863.71,26304.49,29145.43,15222.36,8365.25
1389506.749,2543.16,15854.55,37172.51,38838.06,26298.62,29192.98,15350.06,8356.48
1389506.751,3027.11,15852.17,37145.19,38794.81,26268.77,29233.17,15504.27,8323.24
1389506.753,3128.34,15853.6,37116.39,38762.57,26238.64,29221.01,15601.21,8293.11
1389506.755,2798.22,15874.58,37109.05,38769.63,26228.1,29177.53,15577.65,8284.05
1389506.757,2030.52,15885.74,37122.16,38813.12,26243.98,29136.71,15422.44,8305.88
1389506.759,1357.7,15849.88,37138.8,38855.03,26271.16,29102.19,15219.4,8337.5
1389506.761,1297.24,15831.85,37146.53,38868.34,26283.89,29074.15,15114.36,8349.61
1389506.763,1738.55,15822.79,37147.43,38848.79,26283.7,29085.12,15147.07,8348.32
1389506.765,2318.48,15824.7,37146.91,38834.43,26275.35,29137.66,15274.43,8342.74
1389506.767,2888.68,15838.96,37140.99,38812.45,26262.38,29198.94,15449.24,8322.96
1389506.769,3147.79,15856.22,37124.64,38791.52,26237.4,29219.73,15576.03,8278.7
1389506.771,2975.18,15866.85,37110.81,38783.65,26219.32,29195.74,15602.3,8246.47
1389506.773,2313.47,15886.07,37112.53,38810.21,26226.86,29140.76,15491.92,8260.44
1389506.775,1523.83,15859.84,37131.27,38839.11,26262.1,29085.07,15286.73,8308.51
1389506.777,1249.65,15845.92,37158.54,38871.25,26298.43,29072.86,15141.16,8349.85
1389506.779,1575.85,15852.21,37170.7,38881.12,26309.54,29098.85,15142.68,8358.19
1389506.781,2129.56,15844.16,37163.31,38858.37,26295.38,29142.43,15252.97,8353.28
1389506.783,2715.16,15845.78,37153.2,38814.93,26280.98,29193.74,15407.04,8349.09
1389506.785,3118.85,15861.08,37134.7,38775.88,26255.75,29227.64,15551.0,8324.91
1389506.787,3077.27,15864.71,37111.57,38757.52,26233.34,29217.39,15613.61,8301.97
1389506.789,2604.15,15896.32,37113.24,38771.59,26239.54,29177.19,15553.95,8307.55
1389506.791,1763.2,15880.92,37129.88,38806.87,26259.19,29127.03,15359.07,8336.21
1389506.7931,1277.59,15849.74,37145.57,38847.88,26277.12,29105.86,15172.44,8350.33
1389506.7951,1419.78,15855.41,37172.04,38879.73,26300.86,29128.7,15127.76,8362.29
1389506.7971,1963.19,15865.47,37184.43,38867.19,26309.3,29157.5,15222.07,8371.35
1389506.7991,2520.51,15855.84,37171.56,38825.85,26295.62,29155.59,15355.16,8359.0
1389506.8011,3031.64,15860.27,37140.8,38781.74,26260.9,29203.42,15512.37,8327.2
1389506.8031,3114.94,15857.98,37110.29,38749.65,26232.39,29212.86,15602.07,8298.54
1389506.8051,2836.23,15891.7,37112.05,38771.54,26236.25,29197.7,15600.59,8296.4
1389506.8071,2047.49,15905.19,37128.98,38819.65,26257.85,29147.06,15445.14,8309.32
1389506.8091,1389.03,15873.91,37148.62,38860.8,26279.64,29083.88,15234.14,8335.31
1389506.8111,1310.49,15864.37,37173.56,38886.22,26300.34,29078.34,15132.67,8364.49
1389506.8131,1782.13,15868.95,37180.38,38881.45,26311.31,29123.83,15183.83,8373.17
1389506.8151,2325.15,15866.09,37170.37,38858.08,26303.25,29178.1,15309.43,8360.58
1389506.8171,2905.51,15872.39,37156.49,38827.71,26285.37,29226.12,15472.18,8329.92
1389506.8191,3148.03,15890.17,37143.04,38805.54,26268.58,29229.36,15608.84,8299.02
1389506.8211,2991.1,15901.28,37126.35,38800.2,26248.74,29185.68,15642.02,8263.21
1389506.8231,2316.62,15911.25,37112.57,38816.98,26233.34,29110.72,15522.82,8244.23
1389506.8251,1530.12,15873.2,37128.98,38850.79,26252.42,29056.27,15286.16,8283.85
1389506.8271,1235.01,15848.45,37150.91,38869.15,26280.12,29044.54,15113.12,8342.46
1389506.8291,1572.08,15859.03,37171.99,38868.81,26305.44,29094.89,15120.65,8382.51
1389506.8311,2136.52,15873.72,37187.06,38848.36,26314.55,29160.88,15254.31,8393.86
1389506.8331,2711.92,15857.03,37170.41,38794.0,26286.18,29197.79,15403.32,8365.2
1389506.8351,3103.4,15868.24,37146.67,38759.05,26262.19,29206.57,15551.0,8335.64
1389506.8371,3063.39,15868.19,37127.07,38746.31,26248.94,29191.69,15604.55,8315.95
1389506.8391,2603.2,15899.09,37119.68,38768.82,26249.22,29155.21,15544.85,8317.33
1389506.8411,1773.74,15888.5,37137.89,38822.7,26277.69,29109.15,15358.02,8344.51
1389506.8431,1299.29,15876.01,37166.41,38875.39,26311.83,29088.21,15188.36,8362.68
1389506.8451,1425.17,15874.44,37191.06,38906.44,26339.15,29113.53,15132.81,8382.99
1389506.8471,1966.76,15881.44,37196.31,38899.76,26337.05,29158.74,15224.98,8384.23
1389506.8491,2510.17,15868.81,37186.2,38865.76,26320.27,29208.09,15357.83,8376.46
1389506.8511,3047.71,15890.5,37169.41,38822.8,26298.1,29262.31,15536.26,8356.72
1389506.8531,3119.61,15882.49,37140.42,38782.08,26269.11,29263.12,15623.86,8325.86
1389506.8551,2853.92,15911.39,37131.6,38790.76,26257.95,29232.03,15605.93,8313.8
1389506.8572,2047.3,15903.09,37140.09,38829.38,26269.11,29162.36,15435.65,8330.16
1389506.8592,1404.86,15871.1,37145.09,38872.91,26282.12,29084.59,15223.08,8339.55
1389506.8612,1271.53,15840.63,37152.63,38891.51,26294.9,29060.89,15101.82,8341.65
1389506.8632,1748.61,15846.49,37156.16,38874.68,26294.14,29097.75,15149.79,8337.4
1389506.8652,2288.39,15854.69,37171.99,38858.23,26304.72,29173.52,15289.17,8346.22
1389506.8672,2906.28,15873.15,37172.04,38824.75,26291.09,29217.58,15461.16,8337.98
1389506.8692,3119.23,15865.61,37145.43,38785.18,26258.19,29212.67,15577.22,8305.98
1389506.8712,3013.99,15893.37,37137.47,38786.99,26249.08,29201.89,15621.57,8293.3
1389506.8732,2346.75,15911.72,37139.09,38821.13,26260.05,29165.94,15518.81,8295.68
1389506.8752,1593.73,15886.74,37147.48,38860.47,26276.16,29116.87,15310.58,8315.28
1389506.8772,1256.13,15861.32,37171.46,38875.54,26306.68,29103.28,15152.89,8365.82
1389506.8792,1614.62,15880.3,37192.68,38883.36,26330.28,29139.9,15162.71,8396.34
1389506.8812,2126.93,15877.77,37197.17,38858.7,26333.29,29173.81,15273.53,8408.5
1389506.8832,2737.09,15877.92,37188.06,38833.34,26317.98,29208.95,15430.64,8395.24
1389506.8852,3107.74,15886.74,37171.65,38815.46,26297.62,29228.98,15580.04,8369.97
1389506.8872,3118.18,15903.47,37158.35,38815.65,26286.18,29231.46,15649.37,8351.47
1389506.889,2628.33,15927.7,37146.38,38824.99,26280.93,29193.93,15583.18,8342.74
1389506.891,1808.6,15901.28,37142.04,38839.58,26284.22,29122.55,15385.2,8347.13
1389506.893,1266.34,15857.08,37147.81,38859.42,26299.1,29075.24,15198.95,8356.19
1389506.895,1407.81,15849.74,37156.59,38877.01,26303.01,29090.17,15133.24,8348.9
1389506.897,1909.88,15847.26,37159.35,38857.32,26299.43,29143.96,15191.84,8353.28
1389506.899,2489.47,15842.25,37160.83,38824.32,26292.28,29181.77,15323.78,8355.19
1389506.901,2996.87,15852.93,37142.47,38790.8,26268.58,29193.12,15491.58,8334.11
1389506.903,3118.42,15860.13,37124.59,38775.35,26248.55,29202.18,15591.34,8314.8
1389506.905,2833.84,15894.18,37118.73,38789.94,26242.83,29170.9,15588.33,8303.45
1389506.907,2064.71,15900.04,37130.65,38830.86,26259.76,29115.44,15437.56,8316.95
1389506.909,1413.3,15886.4,37163.41,38886.69,26297.14,29095.13,15253.83,8355.9
1389506.911,1301.67,15853.36,37165.22,38893.51,26299.05,29083.4,15125.66,8357.14
1389506.913,1745.56,15848.11,37161.02,38867.43,26289.18,29112.39,15156.8,8341.12
1389506.915,2280.47,15831.42,37158.54,38832.91,26278.74,29155.83,15272.71,8329.34
1389506.917,2866.65,15837.58,37142.57,38789.23,26255.66,29189.26,15441.61,8311.03
1389506.919,3116.66,15851.21,37130.03,38770.63,26240.49,29208.62,15573.88,8300.02
1389506.921,3006.51,15883.54,37128.64,38775.35,26235.44,29209.05,15613.46,8283.85
1389506.923,2359.68,15904.57,37130.5,38804.34,26243.93,29165.75,15510.04,8292.68
1389506.925,1595.55,15893.18,37148.62,38848.55,26272.49,29117.21,15310.0,8329.11
1389506.927,1256.66,15861.23,37166.03,38881.54,26299.05,29086.74,15145.73,8366.16
1389506.929,1578.14,15863.56,37168.46,38874.73,26295.57,29104.14,15136.48,8363.39
1389506.931,2091.12,15848.83,37166.98,38843.68,26288.18,29163.17,15242.72,8348.47
1389506.933,2710.96,15858.7,37160.83,38814.69,26281.79,29228.4,15413.29,8345.32
1389506.935,3093.34,15866.04,37148.0,38785.56,26269.3,29250.43,15565.11,8332.78
1389506.937,3104.83,15876.72,37130.74,38766.82,26252.03,29223.64,15625.76,8309.17
1389506.939,2622.18,15899.14,37123.02,38774.21,26248.41,29175.95,15568.54,8292.34
1389506.941,1816.89,15888.5,37125.21,38814.02,26256.47,29115.63,15378.67,8298.35
1389506.943,1279.64,15853.69,37142.71,38859.71,26278.59,29082.4,15186.84,8328.11
1389506.945,1445.2,15878.39,37184.72,38903.77,26316.22,29118.02,15152.27,8374.31
1389506.947,1937.44,15872.05,37189.01,38880.5,26314.79,29168.08,15233.09,8383.08
1389506.949,2519.8,15864.33,37175.71,38832.34,26291.52,29198.94,15366.46,8360.01
1389506.951,3009.18,15861.51,37150.63,38783.27,26262.38,29222.97,15518.57,8329.87
1389506.953,3137.02,15865.71,37124.83,38752.32,26236.49,29232.98,15610.03,8294.82
1389506.955,2830.03,15882.16,37112.62,38757.0,26226.81,29202.13,15594.77,8271.74
1389506.957,2074.1,15887.21,37120.25,38796.0,26236.11,29132.47,15438.08,8287.57
1389506.959,1387.45,15856.32,37140.52,38855.18,26256.85,29093.03,15233.66,8318.66
1389506.961,1305.96,15854.55,37166.74,38900.09,26277.69,29097.47,15136.2,8343.46
1389506.963,1740.17,15858.27,37177.14,38894.09,26286.65,29137.76,15183.59,8353.43
1389506.965,2296.59,15846.83,37168.55,38854.79,26277.64,29171.57,15290.17,8341.27
1389506.967,2851.06,15840.72,37148.48,38792.09,26259.71,29203.42,15428.5,8316.95
1389506.969,3128.53,15852.45,37122.49,38744.6,26235.44,29220.63,15563.92,8296.68
1389506.971,2984.19,15869.71,37103.99,38734.68,26225.86,29188.06,15602.02,8285.19
1389506.973,2369.5,15895.99,37107.62,38769.11,26237.16,29146.53,15502.45,8293.34
1389506.975,1577.57,15874.53,37124.26,38817.6,26267.87,29086.97,15306.76,8317.14
1389506.977,1265.34,15853.26,37146.81,38862.38,26293.09,29055.17,15144.54,8340.26
1389506.979,1563.12,15859.61,37169.79,38879.45,26308.25,29085.07,15131.67,8354.04
1389506.981,2119.73,15863.61,37180.43,38861.99,26312.64,29135.85,15247.82,8357.91
1389506.983,2693.32,15858.56,37170.13,38821.56,26292.52,29181.2,15400.36,8337.07
1389506.985,3108.41,15865.33,37144.24,38784.27,26257.8,29206.18,15544.89,8305.22
1389506.987,3087.81,15866.47,37118.68,38759.14,26236.97,29202.7,15608.88,8289.05
1389506.989,2645.68,15894.32,37111.19,38772.54,26225.95,29169.04,15557.58,8291.1
1389506.991,1815.99,15883.16,37121.25,38812.93,26242.02,29110.53,15368.84,8316.57
1389506.993,1299.57,15853.79,37140.52,38856.75,26265.43,29064.32,15176.44,8337.16
1389506.995,1399.18,15851.4,37157.44,38871.58,26282.41,29078.44,15115.17,8338.4
1389506.997,1924.94,15855.12,37166.36,38855.03,26288.08,29140.43,15201.86,8331.16
1389506.999,2488.28,15857.08,37166.98,38830.95,26286.51,29192.26,15349.39,8337.55
1389507.001,3010.37,15858.94,37141.8,38783.65,26255.66,29213.53,15508.94,8312.8
1389507.003,3123.81,15872.53,37126.69,38762.29,26241.11,29237.08,15620.76,8296.63
1389507.005,2870.75,15906.43,37127.69,38779.88,26243.26,29236.03,15623.19,8292.77
1389507.007,2083.97,15896.23,37113.81,38789.18,26237.35,29150.78,15442.04,8288.0
1389507.009,1412.01,15864.76,37133.94,38835.72,26258.42,29102.85,15236.86,8322.43
1389507.011,1301.15,15859.22,37158.68,38880.54,26280.12,29095.32,15134.77,8350.04
1389507.013,1740.31,15858.94,37166.79,38879.45,26288.18,29110.29,15174.15,8360.53
1389507.015,2289.63,15858.94,37168.7,38858.32,26288.23,29162.55,15302.56,8361.15
1389507.017,2878.09,15875.87,37173.23,38841.92,26286.32,29224.92,15471.84,8352.04
1389507.019,3155.9,15898.04,37162.79,38813.5,26272.54,29254.54,15605.5,8337.93
1389507.021,3024.63,15904.0,37142.23,38796.57,26255.66,29232.6,15629.96,8320.67
1389507.023,2395.06,15914.54,37128.02,38808.45,26250.79,29153.88,15509.99,8312.13
1389507.025,1597.17,15875.82,37132.17,38840.97,26264.38,29078.77,15300.94,8329.68
1389507.027,1268.53,15853.03,37149.24,38870.15,26282.27,29049.69,15152.27,8352.19
1389507.029,1559.4,15856.55,37168.55,38871.2,26295.86,29079.87,15144.25,8365.63
1389507.031,2099.9,15856.46,37164.5,38835.24,26290.8,29130.65,15240.58,8360.05
1389507.033,2663.8,15841.63,37151.15,38782.32,26270.58,29179.48,15372.23,8338.83
1389507.035,3085.66,15859.61,37142.09,38756.57,26251.89,29220.63,15536.69,8313.66
1389507.037,3078.89,15871.91,37134.46,38760.81,26245.12,29243.0,15612.7,8305.31
1389507.039,2670.67,15914.01,37136.94,38794.09,26248.7,29232.46,15581.51,8310.56
1389507.041,1824.19,15886.5,37131.74,38821.51,26256.99,29165.18,15377.71,8316.71
1389507.043,1318.88,15862.75,37149.2,38854.03,26277.4,29112.68,15184.6,8334.45
1389507.045,1410.63,15860.37,37174.61,38886.74,26299.58,29123.17,15127.09,8349.37
1389507.047,1948.07,15871.91,37185.86,38882.45,26304.06,29152.68,15207.67,8357.1
1389507.049,2470.97,15856.7,37177.47,38851.31,26288.42,29180.82,15341.62,8351.47
1389507.051,3012.8,15872.48,37159.88,38810.11,26261.71,29219.92,15506.27,8330.78
1389507.053,3108.12,15866.85,37137.27,38772.64,26237.78,29219.96,15599.2,8305.36
1389507.055,2873.37,15898.66,37128.98,38780.98,26229.43,29193.83,15604.16,8290.34
1389507.057,2078.96,15890.65,37124.07,38809.92,26235.63,29128.03,15441.28,8283.09
1389507.059,1436.14,15871.19,37137.32,38860.85,26260.14,29067.09,15238.0,8289.43
1389507.061,1295.71,15862.75,37160.54,38904.24,26291.52,29062.51,15121.13,8319.28
1389507.063,1753.62,15871.1,37168.7,38897.23,26298.62,29103.43,15162.99,8327.87
1389507.065,2258.49,15854.69,37163.69,38855.22,26291.56,29143.62,15282.3,8332.54
1389507.067,2855.06,15860.13,37150.39,38807.11,26270.25,29189.16,15442.04,8332.06
1389507.069,3100.2,15866.57,37138.66,38776.55,26252.94,29223.4,15569.16,8329.96
1389507.071,3021.1,15891.94,37134.22,38774.97,26249.13,29230.88,15618.04,8327.63
1389507.073,2385.04,15909.34,37134.08,38794.24,26254.32,29187.25,15519.43,8329.96
1389507.075,1642.61,15890.36,37147.96,38842.87,26278.07,29120.26,15320.45,8344.46
1389507.077,1273.54,15858.8,37161.78,38877.54,26296.81,29077.44,15155.6,8352.23
1389507.079,1590.01,15864.56,37175.14,38885.74,26307.54,29106.81,15140.15,8364.82
1389507.081,2102.23,15866.9,37177.66,38867.34,26307.3,29159.98,15236.38,8368.87
1389507.083,2694.32,15864.14,37167.98,38835.39,26288.85,29219.96,15388.4,8354.71
1389507.085,3069.54,15866.33,37146.48,38799.48,26263.81,29256.59,15536.88,8332.87
1389507.087,3099.39,15887.31,37141.28,38797.05,26260.24,29254.11,15632.44,8329.77
1389507.089,2664.76,15925.93,37142.23,38810.35,26265.15,29212.86,15595.01,8338.12
1389507.091,1860.33,15900.47,37140.76,38838.63,26269.58,29111.06,15377.38,8335.54
1389507.093,1312.11,15854.22,37143.85,38865.0,26273.92,29062.13,15163.85,8340.26
1389507.095,1419.64,15840.91,37148.19,38868.86,26278.12,29056.6,15093.61,8347.61
1389507.097,1909.3,15848.83,37152.06,38851.41,26284.17,29112.1,15173.77,8351.04
1389507.099,2463.87,15850.16,37155.78,38838.58,26285.79,29166.46,15320.21,8344.22
1389507.101,2974.08,15861.27,37140.99,38810.64,26267.53,29205.42,15485.1,8314.8
1389507.103,3119.85,15882.64,37143.43,38802.96,26264.81,29252.01,15606.88,8310.94
1389507.105,2873.37,15911.1,37131.5,38801.44,26250.27,29236.46,15609.7,8308.17
1389507.107,2111.2,15893.65,37113.43,38811.4,26239.78,29158.88,15441.99,8317.76
1389507.109,1451.4,15872.62,37132.22,38847.69,26264.34,29103.33,15248.59,8354.33
1389507.111,1322.75,15864.99,37158.4,38883.6,26288.08,29110.86,15141.97,8379.41
1389507.113,1750.99,15874.91,37167.27,38878.73,26289.75,29138.23,15175.3,8375.98
1389507.115,2257.92,15856.17,37164.5,38847.59,26278.59,29161.6,15280.49,8354.14
1389507.117,2825.07,15855.22,37149.0,38805.63,26258.52,29211.24,15434.7,8322.38
1389507.119,3071.4,15849.4,37130.79,38775.02,26249.65,29235.6,15553.09,8312.85
1389507.121,2984.09,15874.1,37120.54,38771.92,26248.32,29225.02,15599.2,8316.04
1389507.123,2379.27,15890.98,37122.16,38800.34,26259.28,29150.73,15496.45,8330.25
1389507.125,1629.5,15871.48,37130.93,38841.87,26280.36,29095.13,15297.89,8353.9
1389507.127,1279.88,15854.74,37156.25,38881.5,26307.35,29108.86,15160.13,8383.56
1389507.129,1586.82,15870.72,37169.17,38889.22,26312.4,29139.86,15151.93,8381.46
1389507.131,2069.9,15854.6,37162.31,38854.22,26303.1,29138.62,15235.52,8353.52
1389507.133,2659.37,15862.47,37162.4,38822.56,26293.57,29155.31,15387.2,8334.78
1389507.135,3041.22,15868.0,37151.77,38788.28,26276.21,29194.6,15536.5,8318.71
1389507.137,3077.7,15881.68,37138.37,38779.22,26265.62,29209.05,15609.03,8315.04
1389507.139,2645.11,15910.44,37141.04,38808.02,26270.92,29175.09,15562.01,8322.53
1389507.141,1886.03,15916.02,37157.83,38862.42,26293.57,29124.74,15395.31,8340.88
1389507.143,1333.43,15871.96,37165.12,38892.23,26309.45,29085.45,15201.38,8348.51
1389507.145,1444.96,15873.39,37179.71,38900.9,26319.55,29097.37,15137.86,8367.25
1389507.147,1917.51,15869.43,37186.05,38872.68,26318.93,29146.25,15213.4,8381.03
1389507.149,2467.78,15855.41,37169.99,38833.58,26302.48,29186.92,15342.19,8365.11
1389507.151,2940.99,15843.58,37138.04,38784.7,26266.43,29214.77,15490.49,8328.25
1389507.153,3084.61,15852.88,37115.91,38758.47,26241.93,29213.48,15594.34,8304.74
1389507.155,2829.6,15877.39,37108.33,38771.59,26237.92,29195.41,15595.39,8293.92
1389507.157,2119.54,15891.55,37116.44,38821.23,26256.9,29144.39,15448.57,8295.49
1389507.159,1446.77,15867.76,37143.0,38874.54,26291.37,29108.0,15237.38,8329.54
1389507.161,1341.77,15869.05,37168.79,38902.38,26315.07,29111.48,15138.96,8366.01
1389507.163,1735.12,15860.7,37166.98,38877.06,26307.49,29150.11,15159.51,8357.34
1389507.165,2270.65,15850.02,37164.31,38846.21,26300.0,29198.27,15270.43,8349.37
1389507.167,2808.71,15848.4,37151.96,38799.67,26280.88,29218.25,15428.93,8337.16
1389507.169,3091.76,15857.13,37128.69,38766.25,26250.99,29222.3,15556.86,8303.31
1389507.171,2972.75,15866.38,37109.67,38757.38,26232.63,29196.55,15599.4,8287.53
1389507.173,2402.26,15892.94,37112.62,38781.55,26241.78,29141.24,15511.61,8305.98
1389507.175,1619.48,15870.57,37126.74,38818.94,26267.82,29086.02,15314.29,8338.36
1389507.177,1306.06,15867.33,37168.41,38870.86,26303.58,29092.84,15171.39,8378.89
1389507.179,1578.28,15877.92,37192.54,38881.5,26319.98,29140.43,15153.65,8395.24
1389507.181,2104.9,15875.15,37191.44,38850.41,26315.12,29203.32,15257.5,8386.28
1389507.183,2639.44,15858.84,37172.23,38805.49,26289.51,29233.41,15402.37,8346.37
1389507.185,3057.91,15867.14,37155.2,38777.07,26270.01,29251.77,15551.86,8321.57
1389507.187,3072.79,15881.35,37142.81,38770.58,26263.38,29239.61,15630.44,8310.84
1389507.189,2670.19,15898.28,37126.83,38776.45,26254.08,29199.37,15574.84,8297.68
1389507.191,1870.16,15889.79,37137.42,38811.64,26277.4,29150.3,15393.64,8319.9
1389507.193,1369.1,15881.83,37174.61,38872.15,26323.7,29135.8,15228.56,8371.4
1389507.195,1445.58,15877.15,37188.58,38887.17,26336.1,29153.73,15161.13,8388.23
1389507.197,1908.83,15847.97,37169.94,38845.26,26307.54,29168.66,15206.67,8359.0
1389507.199,2422.0,15828.04,37147.34,38797.43,26274.06,29183.2,15322.59,8314.9
1389507.201,2927.59,15826.42,37125.21,38761.91,26245.41,29201.89,15463.5,8280.09
1389507.203,3067.21,15848.92,37120.49,38759.19,26242.74,29214.29,15580.85,8286.24
1389507.205,2839.14,15873.1,37112.43,38773.06,26238.92,29183.01,15586.28,8293.92
1389507.207,2108.72,15871.05,37106.47,38794.95,26236.01,29107.62,15428.83,8285.19
1389507.209,1445.58,15847.88,37130.26,38843.97,26262.14,29068.19,15242.86,8313.7
1389507.211,1322.41,15856.12,37168.6,38881.4,26298.57,29081.63,15158.85,8353.47
1389507.213,1731.92,15856.94,37177.42,38866.76,26311.16,29106.81,15192.89,8360.77
1389507.215,2244.66,15837.43,37164.17,38824.52,26290.42,29133.7,15293.08,8343.6
1389507.217,2795.36,15826.51,37153.87,38782.17,26264.19,29179.0,15425.11,8326.25
1389507.219,3074.84,15834.57,37135.46,38751.18,26236.35,29202.51,15546.75,8294.49
1389507.221,2969.07,15840.82,37119.49,38745.93,26216.37,29201.65,15592.72,8272.12
1389507.223,2407.41,15869.52,37115.48,38771.11,26222.76,29160.93,15500.21,8284.43
1389507.225,1641.8,15856.03,37132.46,38822.46,26260.24,29123.12,15306.86,8324.81
1389507.227,1303.63,15837.62,37149.53,38851.98,26286.22,29095.32,15155.79,8354.71
1389507.229,1559.54,15842.01,37167.51,38855.89,26303.39,29124.36,15146.69,8368.78
1389507.231,2092.89,15850.83,37176.23,38833.58,26307.92,29176.19,15267.33,8368.87
1389507.233,2635.34,15839.53,37166.31,38795.86,26294.28,29215.72,15400.65,8357.34
1389507.235,3046.7,15840.01,37134.79,38754.52,26252.7,29247.1,15519.67,8317.85
1389507.237,3027.58,15824.75,37102.89,38721.71,26218.66,29241.18,15572.45,8278.23
1389507.239,2657.37,15865.76,37102.27,38738.54,26214.41,29194.6,15545.66,8267.07
1389507.241,1861.24,15860.65,37118.01,38782.89,26239.02,29136.76,15376.0,8287.57
1389507.243,1372.0,15862.9,37152.53,38854.79,26282.98,29098.47,15216.88,8332.54
1389507.245,1410.44,15850.02,37166.41,38876.97,26297.24,29060.32,15131.62,8346.61
1389507.247,1905.49,15844.78,37161.12,38854.08,26286.75,29103.47,15194.08,8329.87
1389507.249,2414.75,15834.62,37156.3,38818.65,26275.92,29155.78,15330.36,8317.19
1389507.251,2961.64,15854.98,37143.85,38775.97,26258.19,29210.52,15503.98,8307.03
1389507.253,3077.65,15856.55,37130.65,38746.08,26242.69,29235.13,15595.72,8291.53
1389507.255,2885.29,15892.27,37126.5,38758.43,26238.97,29224.21,15608.88,8286.91
1389507.257,2141.38,15895.89,37126.59,38788.04,26250.41,29171.66,15466.64,8303.69
1389507.259,1497.65,15874.24,37147.0,38832.81,26276.64,29120.64,15270.66,8331.16
1389507.261,1321.46,15860.7,37169.51,38859.99,26304.39,29108.48,15160.13,8354.47
1389507.263,1750.61,15868.09,37176.23,38853.08,26309.3,29125.31,15190.79,8357.38
1389507.265,2245.47,15853.07,37175.18,38825.52,26301.43,29176.91,15292.55,8352.42
1389507.267,2799.23,15828.8,37136.56,38761.05,26251.99,29191.35,15397.84,8304.17
1389507.269,3037.6,15818.65,37104.47,38720.28,26212.27,29187.4,15520.72,8259.2
1389507.271,2974.75,15841.39,37095.27,38728.62,26201.78,29151.49,15580.32,8228.16
1389507.273,2393.1,15870.0,37100.84,38767.96,26218.37,29106.91,15494.4,8235.12
1389507.275,1670.17,15871.24,37130.03,38830.81,26265.05,29085.45,15314.1,8287.14
1389507.277,1288.7,15844.44,37141.28,38850.84,26285.56,29066.23,15152.84,8320.95
1389507.279,1558.3,15845.83,37148.0,38835.96,26288.94,29092.7,15131.38,8342.6
1389507.281,2057.41,15854.5,37162.12,38816.31,26298.1,29156.93,15241.34,8360.86
1389507.283,2638.63,15859.65,37164.93,38794.47,26295.28,29216.53,15391.92,8354.0
1389507.285,3018.19,15849.4,37131.93,38747.46,26255.75,29230.65,15506.98,8305.6
1389507.287,3058.43,15852.26,37122.21,38745.12,26239.06,29215.53,15565.83,8287.34
1389507.289,2659.75,15881.49,37109.62,38766.96,26223.0,29152.4,15533.5,8285.0
1389507.291,1885.65,15877.39,37115.67,38808.78,26231.2,29087.36,15359.69,8302.74
1389507.293,1337.77,15851.79,37131.22,38839.87,26256.28,29063.61,15177.3,8328.92
1389507.295,1415.83,15854.65,37162.5,38859.42,26291.61,29084.35,15119.08,8357.48
1389507.297,1909.45,15870.48,37188.25,38856.46,26315.02,29143.67,15207.2,8371.88
1389507.299,2450.28,15865.04,37192.73,38834.77,26313.36,29203.7,15340.38,8369.69
1389507.301,2975.13,15886.59,37186.91,38804.49,26297.33,29231.41,15511.28,8354.24
1389507.303,3102.54,15869.52,37155.16,38760.52,26267.25,29229.41,15600.11,8318.09
1389507.305,2883.63,15888.65,37135.99,38753.56,26251.51,29218.72,15600.3,8298.02
1389507.307,2155.69,15882.4,37129.69,38776.93,26254.7,29154.26,15442.61,8296.97
1389507.309,1478.82,15856.79,37134.13,38812.88,26265.2,29090.84,15240.58,8316.71
1389507.311,1300.24,15834.33,37147.1,38839.39,26274.59,29059.27,15111.73,8327.06
1389507.313,1701.83,15832.19,37145.09,38828.28,26271.2,29059.03,15123.23,8318.43
1389507.315,2222.2,15837.0,37164.6,38825.23,26292.14,29128.65,15255.36,8342.65
1389507.317,2826.55,15868.62,37178.33,38818.65,26299.96,29207.19,15446.86,8346.42
1389507.319,3100.4,15870.19,37165.41,38786.27,26288.46,29237.04,15580.85,8323.67
1389507.321,3014.28,15865.85,37127.93,38758.43,26253.18,29215.24,15600.87,8288.24
1389507.323,2421.95,15874.53,37115.77,38781.08,26240.78,29167.7,15481.47,8289.62
1389507.325,1681.47,15869.43,37131.65,38834.72,26258.52,29115.87,15292.74,8317.61
1389507.327,1290.23,15838.91,37151.96,38871.63,26286.56,29069.33,15125.94,8336.93
1389507.329,1568.37,15857.79,37177.76,38882.21,26312.74,29082.68,15117.5,8349.42
1389507.331,2045.92,15848.69,37177.85,38855.7,26311.93,29127.89,15215.3,8341.41
1389507.333,2611.69,15840.06,37163.93,38812.79,26288.23,29145.29,15351.73,8326.91
1389507.335,3019.29,15852.83,37157.92,38781.36,26274.26,29180.05,15502.88,8333.49
1389507.337,3086.76,15875.96,37153.34,38772.02,26266.86,29195.12,15587.52,8336.88
1389507.339,2688.79,15900.14,37145.05,38793.38,26261.86,29165.46,15554.95,8323.15
1389507.341,1931.95,15899.23,37155.54,38842.06,26278.4,29122.88,15377.9,8317.23
1389507.343,1361.66,15864.33,37175.85,38882.07,26301.2,29090.69,15192.27,8337.93
1389507.345,1429.46,15856.32,37182.0,38889.98,26305.49,29081.44,15119.7,8358.62
1389507.347,1870.11,15841.06,37174.28,38855.84,26296.71,29098.85,15168.53,8362.77
1389507.349,2416.66,15837.62,37165.55,38817.22,26285.6,29137.66,15297.75,8360.91
1389507.351,2923.2,15844.01,37156.16,38783.22,26272.2,29182.82,15451.24,8351.52
1389507.353,3116.18,15868.9,37159.35,38777.31,26276.26,29217.29,15576.17,8347.8
1389507.355,2889.59,15895.8,37157.3,38783.36,26271.87,29201.27,15595.34,8338.74
1389507.357,2201.99,15916.21,37162.26,38824.56,26283.17,29143.29,15469.74,8348.08
1389507.359,1501.85,15881.73,37168.46,38857.89,26297.14,29094.17,15263.85,8358.0
1389507.361,1331.76,15857.08,37171.18,38870.39,26297.62,29049.59,15126.85,8356.95
1389507.363,1700.93,15856.7,37173.8,38865.14,26300.34,29068.43,15149.02,8357.0
1389507.365,2230.45,15850.45,37173.42,38840.35,26301.86,29121.93,15261.13,8360.72
1389507.367,2766.09,15842.01,37161.16,38799.86,26285.6,29167.37,15403.18,8344.27
1389507.369,3073.74,15849.64,37143.04,38770.39,26259.95,29194.74,15533.54,8309.99
1389507.371,2976.85,15862.99,37128.83,38757.23,26241.54,29174.62,15579.65,8299.07
1389507.373,2436.78,15881.44,37120.63,38776.88,26235.25,29123.88,15489.58,8300.5
1389507.375,1656.1,15860.03,37130.31,38815.93,26254.66,29070.14,15294.03,8320.38
1389507.377,1301.62,15844.78,37154.77,38861.04,26284.03,29052.98,15137.91,8343.27
1389507.379,1542.85,15860.46,37174.75,38873.72,26305.44,29081.11,15128.57,8365.54
1389507.381,2062.7,15860.75,37181.91,38853.32,26305.87,29133.47,15232.47,8371.35
1389507.383,2597.0,15843.54,37162.59,38801.39,26283.46,29177.81,15358.97,8350.37
1389507.385,3041.55,15861.99,37155.87,38782.03,26274.73,29233.17,15501.88,8332.44
1389507.387,3076.03,15876.15,37146.95,38776.59,26271.3,29257.49,15587.95,8307.7
1389507.389,2711.11,15907.67,37145.48,38803.3,26274.45,29229.5,15559.06,8306.12
1389507.391,1923.32,15901.38,37148.81,38837.72,26284.03,29146.48,15382.48,8330.54
1389507.393,1370.57,15861.42,37155.44,38862.09,26291.04,29074.72,15190.56,8354.28
1389507.395,1402.24,15855.03,37166.17,38876.49,26294.43,29051.88,15108.78,8365.06
1389507.397,1871.4,15845.83,37165.36,38858.7,26289.85,29081.01,15164.23,8350.75
1389507.399,2389.81,15836.77,37162.26,38828.43,26285.46,29126.17,15295.32,8341.98
1389507.401,2902.56,15831.47,37141.85,38775.16,26264.38,29165.46,15449.48,8325.39
1389507.403,3058.96,15836.91,37120.87,38737.25,26246.36,29178.86,15560.58,8308.08
1389507.405,2873.71,15876.82,37127.64,38761.57,26255.99,29180.1,15585.52,8318.23
1389507.407,2200.41,15913.2,37151.39,38819.89,26287.8,29154.92,15468.5,8350.8
1389507.409,1504.33,15873.96,37156.11,38855.32,26302.53,29103.0,15254.79,8362.34
1389507.411,1324.84,15852.74,37167.74,38867.96,26311.73,29084.4,15120.98,8366.63
1389507.413,1701.02,15846.02,37168.94,38863.33,26304.3,29109.58,15134.91,8361.72
1389507.415,2204.99,15833.28,37155.06,38839.87,26285.46,29137.61,15244.06,8340.22
1389507.417,2743.15,15820.55,37139.8,38791.42,26266.86,29165.27,15388.44,8329.15
1389507.419,3049.85,15833.76,37122.44,38748.08,26245.93,29184.58,15520.77,8320.09
1389507.421,2960.83,15837.19,37101.56,38727.43,26226.57,29172.66,15558.15,8302.21
1389507.423,2420.62,15862.42,37086.49,38740.73,26216.56,29105.0,15473.08,8272.36
1389507.425,1639.75,15845.54,37101.56,38787.18,26241.35,29046.73,15280.63,8285.9
1389507.427,1286.84,15836.05,37133.84,38837.39,26275.3,29031.66,15115.07,8320.76
1389507.429,1515.2,15840.68,37157.68,38853.17,26294.76,29071.95,15095.86,8346.7
1389507.431,2031.61,15836.67,37155.39,38823.8,26285.99,29111.91,15187.46,8340.46
1389507.433,2559.76,15820.79,37149.62,38789.85,26275.07,29153.88,15323.55,8320.19
1389507.435,3015.9,15840.72,37140.52,38769.3,26261.14,29198.94,15487.58,8307.84
1389507.437,3027.34,15829.52,37114.34,38747.27,26235.15,29199.79,15563.78,8286.29
1389507.439,2677.73,15856.17,37102.08,38749.41,26218.94,29132.04,15527.44,8262.25
1389507.441,1869.01,15842.68,37103.32,38769.35,26224.19,29049.07,15340.28,8272.36
1389507.443,1338.96,15829.95,37122.3,38810.59,26253.27,29013.59,15167.81,8312.18
1389507.445,1346.68,15820.79,37136.46,38830.57,26274.26,29025.65,15093.95,8340.31
1389507.447,1848.89,15829.61,37144.24,38823.99,26281.36,29071.14,15159.8,8352.38
1389507.449,2355.48,15820.7,37146.53,38800.24,26279.6,29127.32,15278.53,8351.61
1389507.451,2910.38,15840.01,37141.04,38772.73,26269.3,29192.69,15442.28,8338.17
1389507.453,3041.27,15837.39,37118.96,38739.11,26249.6,29193.31,15547.75,8317.19
1389507.455,2866.98,15858.7,37097.84,38728.29,26227.62,29150.54,15555.19,8293.15
1389507.457,2140.62,15858.89,37092.98,38751.65,26227.86,29090.31,15412.76,8293.68
1389507.459,1488.88,15841.2,37118.58,38805.73,26254.13,29050.4,15221.03,8312.13
1389507.461,1273.58,15819.27,37132.89,38835.43,26270.96,29031.47,15086.56,8321.43
1389507.463,1681.61,15829.28,37141.14,38829.14,26277.69,29067.66,15111.73,8330.54
1389507.465,2171.9,15820.46,37141.76,38798.38,26271.01,29115.97,15230.23,8326.91
1389507.467,2749.63,15821.36,37133.13,38764.2,26250.84,29150.3,15382.86,8310.22
1389507.469,3022.72,15818.03,37112.81,38728.1,26228.0,29170.76,15507.65,8293.39
1389507.471,2978.95,15836.67,37103.47,38722.62,26214.56,29176.95,15569.16,8283.19
1389507.473,2432.73,15864.52,37100.46,38746.12,26217.13,29138.14,15492.73,8284.0
1389507.475,1693.58,15859.27,37115.72,38790.14,26247.08,29080.92,15306.24,8307.84
1389507.477,1288.32,15841.15,37134.99,38831.67,26279.79,29052.64,15143.68,8334.45
1389507.479,1510.29,15825.08,37127.69,38827.14,26272.2,29051.45,15092.09,8321.76
1389507.481,1983.36,15813.45,37122.06,38797.24,26257.52,29083.35,15175.73,8305.31
1389507.483,2542.4,15808.63,37118.15,38769.92,26242.55,29138.71,15321.45,8286.91
1389507.485,2969.79,15818.31,37108.33,38742.55,26226.33,29177.96,15472.84,8268.55
1389507.487,3018.67,15815.26,37086.4,38721.04,26211.98,29180.29,15551.86,8250.52
1389507.489,2666.43,15851.88,37083.73,38737.44,26212.5,29153.26,15528.59,8258.49
1389507.491,1907.87,15851.79,37093.79,38773.06,26230.05,29092.51,15357.54,8290.01
1389507.493,1342.34,15826.85,37112.1,38808.35,26253.04,29038.81,15161.9,8311.56
1389507.495,1369.81,15828.75,37137.94,38844.02,26278.31,29056.55,15082.74,8326.1
1389507.497,1836.4,15836.38,37143.28,38826.76,26277.74,29092.84,15143.87,8328.49
1389507.499,2354.67,15817.31,37137.99,38799.48,26267.34,29133.28,15263.03,8322.0
1389507.501,2888.49,15827.94,37130.26,38766.58,26250.99,29168.8,15420.39,8307.36
1389507.503,3053.43,15832.47,37117.91,38751.94,26239.45,29181.96,15527.68,8289.15
1389507.505,2874.28,15857.89,37100.13,38751.08,26222.66,29160.69,15546.04,8263.3
1389507.507,2170.8,15857.17,37090.5,38755.9,26220.28,29102.76,15406.75,8271.46
1389507.509,1486.83,15838.72,37107.81,38792.04,26245.41,29058.13,15215.92,8303.5
1389507.511,1269.96,15817.41,37131.6,38821.27,26270.68,29037.91,15086.51,8321.0
1389507.513,1671.74,15832.0,37144.0,38818.6,26276.07,29072.19,15113.93,8326.01
1389507.515,2168.94,15820.65,37147.86,38799.53,26275.3,29112.25,15227.8,8331.2
1389507.517,2748.68,15828.85,37144.14,38771.92,26265.2,29152.78,15385.58,8326.58
1389507.519,3053.24,15844.35,37145.05,38755.8,26256.61,29189.92,15529.11,8320.19
1389507.521,3018.38,15869.29,37134.79,38754.8,26242.12,29190.73,15587.81,8305.69
1389507.523,2473.26,15884.88,37124.11,38782.84,26237.68,29137.81,15500.98,8304.6
1389507.525,1719.09,15868.95,37131.36,38818.36,26250.27,29087.83,15301.99,8317.42
1389507.527,1279.16,15826.04,37133.41,38833.24,26258.61,29050.02,15116.84,8323.77
1389507.529,1526.4,15843.2,37146.62,38827.66,26269.39,29079.01,15093.66,8334.3
1389507.531,2007.15,15834.24,37145.76,38801.82,26268.39,29125.26,15186.93,8326.2
1389507.533,2568.05,15824.13,37133.79,38775.5,26256.95,29152.21,15331.37,8304.74
1389507.535,2979.66,15816.79,37114.2,38736.35,26240.64,29180.91,15472.08,8282.9
1389507.537,3064.68,15843.39,37111.19,38735.59,26236.82,29183.3,15565.11,8283.85
1389507.539,2700.33,15867.04,37107.19,38749.94,26234.06,29145.15,15520.0,8291.96
1389507.541,1945.73,15867.14,37116.34,38786.08,26244.6,29067.85,15344.53,8302.83
1389507.543,1355.17,15838.48,37133.56,38828.66,26265.58,29016.59,15167.0,8311.13
1389507.545,1398.56,15846.54,37158.4,38850.98,26282.89,29043.58,15094.71,8321.95
1389507.547,1842.21,15842.58,37161.88,38833.24,26283.41,29093.56,15157.65,8330.3
1389507.549,2375.75,15830.95,37151.72,38795.43,26270.77,29131.08,15267.71,8326.58
1389507.551,2879.05,15826.13,37144.24,38752.51,26256.99,29162.65,15411.19,8309.32
1389507.553,3077.94,15837.19,37131.98,38731.72,26242.4,29174.67,15525.01,8295.2
1389507.555,2885.72,15867.43,37127.79,38753.32,26240.78,29180.86,15551.0,8298.35
1389507.557,2228.55,15887.07,37129.17,38797.67,26250.03,29135.99,15429.64,8310.46
1389507.559,1516.63,15863.37,37141.52,38840.2,26276.07,29077.06,15235.14,8333.59
1389507.561,1317.5,15843.92,37153.2,38859.9,26288.85,29039.43,15101.24,8339.36
1389507.563,1666.07,15846.21,37155.49,38837.82,26291.04,29051.36,15110.64,8340.65
1389507.565,2186.01,15836.43,37144.95,38800.43,26283.55,29097.51,15211.15,8331.87
1389507.567,2735.66,15836.77,37139.09,38767.1,26271.16,29162.22,15374.38,8318.23
1389507.569,3076.03,15847.88,37131.08,38746.03,26258.57,29199.08,15514.33,8295.63
1389507.571,3008.18,15857.27,37119.11,38739.97,26245.88,29183.11,15565.02,8289.24
1389507.573,2494.67,15884.78,37118.49,38770.92,26243.31,29123.26,15485.38,8280.14
1389507.575,1711.99,15870.95,37135.8,38820.41,26262.48,29071.1,15295.13,8289.15
1389507.577,1312.54,15841.3,37148.77,38858.7,26277.97,29038.58,15125.28,8314.23
1389507.579,1510.0,15841.63,37159.97,38869.67,26285.6,29047.06,15088.04,8342.74
1389507.581,2030.71,15853.88,37181.29,38864.43,26301.05,29109.2,15190.27,8363.2
1389507.583,2589.66,15862.13,37189.63,38839.01,26306.78,29173.95,15341.95,8366.73
1389507.585,3035.78,15858.32,37159.21,38787.75,26278.55,29208.71,15487.77,8329.92
1389507.587,3069.07,15852.88,37128.74,38765.34,26252.56,29209.19,15564.63,8297.73
1389507.589,2743.58,15886.21,37128.17,38775.83,26256.99,29186.78,15548.04,8307.36
1389507.591,1968.19,15886.98,37132.17,38808.06,26269.06,29124.84,15375.81,8323.72
1389507.593,1384.26,15849.21,37140.99,38834.43,26286.18,29067.85,15164.62,8344.75
1389507.595,1382.78,15844.68,37158.21,38850.98,26300.81,29059.6,15073.02,8362.2
1389507.597,1847.12,15848.54,37164.5,38830.81,26300.81,29107.14,15147.64,8360.63
1389507.599,2377.27,15845.97,37161.12,38798.77,26291.66,29158.07,15294.65,8338.88
1389507.601,2913.19,15856.36,37158.64,38773.88,26278.83,29214.48,15463.88,8317.28
1389507.603,3105.83,15872.24,37148.53,38757.09,26266.39,29243.38,15560.44,8304.64
1389507.605,2925.16,15891.12,37142.47,38773.83,26256.95,29221.49,15568.97,8298.02
1389507.607,2253.87,15908.62,37143.71,38809.78,26258.95,29152.16,15443.99,8311.7
1389507.609,1535.94,15877.77,37156.06,38849.88,26278.64,29054.31,15235.47,8337.88
1389507.611,1320.55,15859.42,37166.93,38873.87,26295.38,29033.33,15102.91,8354.52
1389507.613,1668.26,15859.8,37172.51,38862.19,26302.29,29068.43,15111.83,8351.28
1389507.615,2189.73,15854.69,37171.94,38831.62,26298.62,29107.38,15217.45,8341.17
1389507.617,2747.58,15851.69,37170.37,38800.43,26297.43,29156.26,15365.89,8337.31
1389507.619,3103.07,15881.35,37165.79,38778.93,26290.61,29195.46,15520.96,8331.11
1389507.621,3055.76,15908.39,37167.7,38791.57,26291.71,29227.07,15600.83,8337.07
1389507.623,2540.78,15915.87,37140.76,38798.58,26261.81,29159.98,15508.84,8314.85
1389507.625,1723.86,15873.82,37133.46,38819.27,26259.19,29066.14,15298.08,8312.42
1389507.627,1322.08,15855.12,37154.73,38856.89,26282.27,29031.95,15133.14,8329.06
1389507.629,1512.43,15857.65,37171.46,38866.05,26299.34,29067.19,15088.99,8351.47
1389507.631,2038.43,15863.37,37176.52,38839.87,26304.53,29129.84,15189.84,8354.33
1389507.633,2567.67,15849.07,37168.55,38807.54,26298.48,29190.02,15328.6,8342.98
1389507.635,3042.13,15866.28,37154.35,38767.1,26281.31,29218.15,15482.57,8316.18
1389507.637,3084.61,15869.19,37146.0,38750.46,26273.59,29190.83,15569.35,8305.74
1389507.639,2775.48,15898.75,37137.04,38767.91,26263.86,29149.68,15540.98,8312.18
1389507.641,1970.48,15880.01,37128.88,38793.0,26259.85,29083.45,15358.35,8321.81
1389507.643,1413.54,15863.33,37156.54,38841.35,26287.18,29057.03,15178.87,8350.75
1389507.645,1379.39,15852.21,37176.28,38864.33,26306.97,29071.95,15088.37,8364.44
1389507.647,1865.91,15852.93,37174.61,38846.35,26301.96,29115.11,15149.6,8350.95
1389507.649,2361.68,15834.38,37161.35,38812.17,26287.94,29156.45,15269.66,8335.11
1389507.651,2932.26,15851.79,37153.96,38787.89,26278.83,29199.41,15436.56,8322.91
1389507.653,3101.87,15856.46,37137.99,38767.77,26265.53,29198.22,15557.58,8302.78
1389507.655,2959.87,15886.98,37129.17,38775.07,26257.28,29184.06,15588.57,8301.16
1389507.6572,2252.05,15896.13,37130.41,38797.57,26261.76,29126.79,15458.92,8314.8
1389507.6592,1557.25,15869.33,37137.42,38830.19,26277.02,29062.27,15256.17,8331.59
1389507.6612,1302.58,15853.12,37156.87,38862.19,26298.0,29055.41,15125.51,8351.33
1389507.6632,1692.87,15873.29,37173.61,38866.62,26310.02,29100.85,15141.58,8359.19
1389507.6652,2190.11,15862.66,37174.75,38833.1,26304.63,29149.96,15232.71,8353.14
1389507.6672,2780.72,15858.84,37166.41,38791.33,26291.04,29195.31,15369.37,8339.98
1389507.6692,3096.25,15866.28,37153.2,38765.01,26276.31,29224.59,15521.0,8322.62
1389507.6712,3076.22,15883.54,37143.57,38765.39,26262.95,29236.22,15594.63,8312.32
1389507.6732,2546.36,15905.81,37137.18,38789.47,26259.62,29188.87,15517.67,8311.18
1389507.6752,1772.31,15892.08,37152.39,38837.34,26285.13,29128.98,15321.3,8334.11
1389507.6772,1333.38,15876.01,37176.76,38882.45,26317.03,29092.12,15154.41,8363.87
1389507.6792,1531.55,15875.29,37190.82,38898.9,26328.23,29097.04,15112.45,8376.5
1389507.6812,2021.93,15872.29,37192.21,38881.69,26322.7,29140.76,15205.15,8377.84
1389507.6832,2570.63,15854.07,37175.56,38838.39,26298.53,29175.71,15335.9,8354.57
1389507.6852,3019.29,15857.84,37151.63,38781.98,26272.25,29202.37,15484.29,8323.62
1389507.6872,3085.18,15856.89,37132.17,38742.17,26254.42,29196.65,15575.65,8289.43
1389507.689,2764.03,15892.79,37131.74,38751.08,26254.85,29174.14,15553.43,8281.52
1389507.691,1999.71,15896.66,37143.85,38800.48,26275.3,29126.5,15383.87,8299.64
1389507.693,1411.1,15878.11,37161.12,38853.41,26300.77,29072.96,15189.84,8332.4
1389507.695,1388.26,15870.76,37182.24,38878.11,26319.51,29063.42,15109.97,8370.83
1389507.697,1851.85,15872.05,37181.86,38849.02,26316.79,29084.64,15160.85,8371.5
1389507.699,2366.02,15851.07,37173.99,38817.79,26305.87,29123.74,15270.9,8344.56
1389507.701,2925.21,15863.71,37167.98,38792.61,26287.99,29184.34,15432.69,8322.53
1389507.703,3111.7,15863.9,37157.44,38773.35,26269.11,29195.03,15536.83,8312.37
1389507.705,2964.45,15894.08,37151.53,38779.17,26262.67,29178.91,15569.59,8312.85
1389507.707,2280.62,15905.57,37154.58,38812.93,26278.02,29113.58,15450.57,8328.58
1389507.709,1575.18,15892.13,37171.89,38855.99,26303.87,29072.24,15252.26,8354.33
1389507.711,1313.21,15868.38,37189.06,38875.49,26326.09,29059.13,15110.88,8372.74
1389507.713,1684.24,15873.29,37188.58,38849.93,26320.89,29084.88,15122.13,8367.16
1389507.715,2181.91,15865.85,37189.25,38835.15,26313.74,29123.5,15237.0,8354.33
1389507.717,2777.82,15880.78,37190.63,38819.6,26306.39,29174.47,15413.81,8350.18
1389507.719,3102.64,15884.83,37176.09,38789.94,26292.09,29208.19,15555.43,8341.55
1389507.721,3088.28,15904.95,37161.21,38779.45,26278.83,29212.05,15605.31,8328.15
1389507.723,2564.81,15927.79,37157.25,38799.58,26276.02,29183.92,15524.72,8321.19
1389507.725,1801.63,15918.02,37166.89,38837.01,26289.94,29141.24,15342.86,8336.97
1389507.727,1333.0,15882.16,37180.48,38865.38,26314.88,29112.96,15161.71,8362.82
1389507.729,1538.09,15884.12,37190.11,38873.34,26330.09,29127.46,15121.99,8372.69
1389507.731,2008.34,15868.57,37189.15,38846.45,26331.67,29143.34,15194.89,8368.4
1389507.733,2585.79,15863.23,37184.82,38814.31,26325.32,29170.71,15327.88,8360.01
1389507.735,3028.54,15864.52,37173.37,38774.59,26314.79,29191.07,15478.28,8338.07
1389507.737,3137.68,15885.21,37168.55,38763.19,26309.59,29205.85,15584.52,8326.96
1389507.739,2809.33,15924.6,37175.99,38793.28,26310.21,29191.64,15579.18,8331.06
1389507.741,2063.04,15934.8,37184.39,38848.83,26320.37,29140.09,15422.39,8346.08
1389507.743,1421.98,15890.93,37190.35,38887.51,26335.86,29092.12,15211.58,8358.29
1389507.745,1424.6,15899.52,37224.58,38922.31,26368.72,29109.05,15137.48,8391.29
1389507.747,1856.61,15894.27,37229.02,38899.09,26367.1,29137.71,15179.45,8393.91
1389507.749,2393.25,15880.21,37219.43,38854.51,26350.07,29173.95,15297.27,8377.98
1389507.751,2921.68,15883.16,37203.89,38814.69,26328.9,29213.38,15460.54,8358.05
1389507.753,3150.8,15897.66,37190.58,38799.2,26314.69,29231.74,15583.8,8350.13
1389507.755,2970.17,15914.92,37180.95,38806.54,26310.69,29220.11,15601.49,8350.28
1389507.757,2314.42,15929.65,37177.28,38832.38,26312.4,29173.43,15475.08,8344.75
1389507.759,1572.18,15906.29,37188.77,38860.13,26332.81,29133.47,15263.13,8369.45
1389507.761,1336.0,15887.21,37199.31,38877.16,26346.64,29122.17,15124.99,8392.19
1389507.763,1669.45,15886.02,37204.17,38869.43,26352.07,29131.51,15132.62,8397.77
1389507.765,2195.69,15874.77,37207.61,38839.01,26350.98,29132.32,15235.81,8390.33
1389507.767,2757.41,15875.39,37205.41,38803.63,26335.34,29180.91,15402.13,8372.59
1389507.769,3126.57,15894.51,37198.36,38785.03,26326.95,29226.35,15566.06,8360.24
1389507.771,3091.76,15916.16,37187.39,38786.94,26323.13,29249.1,15634.25,8360.91
1389507.773,2595.57,15932.85,37169.22,38800.77,26312.45,29208.76,15540.41,8352.71
1389507.775,1777.6,15902.9,37162.45,38831.67,26316.36,29129.94,15333.61,8363.1
1389507.777,1334.52,15876.1,37180.38,38867.86,26342.16,29085.02,15160.51,8390.14
1389507.779,1496.22,15872.77,37191.44,38874.34,26350.55,29077.96,15112.07,8396.53
1389507.781,2001.24,15869.43,37196.35,38859.42,26343.87,29110.1,15196.37,8384.75
1389507.783,2552.89,15866.42,37195.5,38831.14,26333.62,29155.88,15344.76,8366.25
1389507.785,3037.55,15878.39,37185.24,38800.77,26315.45,29195.46,15506.98,8346.32
1389507.787,3117.99,15893.75,37171.37,38783.65,26300.62,29218.77,15604.64,8336.02
1389507.789,2812.1,15922.45,37166.65,38792.81,26296.86,29192.02,15586.09,8330.25
1389507.791,2044.58,15929.89,37170.32,38830.38,26313.26,29134.66,15425.02,8353.81
1389507.793,1439.09,15906.76,37190.63,38879.11,26345.73,29102.0,15236.38,8389.52
1389507.795,1401.0,15900.66,37205.65,38903.62,26359.85,29103.28,15139.49,8402.01
1389507.797,1853.13,15904.81,37212.33,38889.94,26358.66,29151.73,15189.84,8395.48
1389507.799,2381.71,15894.08,37204.32,38851.17,26341.87,29207.04,15310.19,8381.27
1389507.801,2918.91,15884.31,37186.05,38803.58,26317.31,29233.51,15459.73,8358.62
1389507.803,3138.78,15890.89,37168.79,38773.92,26294.0,29233.51,15579.27,8335.88
1389507.805,2974.13,15904.33,37159.5,38779.69,26283.84,29193.93,15612.56,8324.05
1389507.807,2343.27,15943.91,37178.23,38835.39,26306.39,29154.07,15515.52,8346.13
1389507.809,1606.8,15919.59,37192.68,38878.92,26333.96,29113.2,15305.85,8364.58
1389507.811,1353.26,15900.09,37204.46,38901.52,26352.55,29101.33,15145.49,8371.26
1389507.813,1683.52,15897.56,37216.72,38885.55,26360.94,29128.6,15151.22,8383.7
1389507.815,2217.34,15896.37,37217.38,38862.19,26358.32,29175.0,15269.52,8385.28
1389507.817,2769.76,15885.97,37205.37,38840.01,26337.91,29209.81,15418.77,8365.73
1389507.819,3135.92,15899.09,37183.91,38811.35,26312.31,29226.02,15561.25,8340.98
1389507.821,3094.24,15904.24,37173.08,38798.53,26303.91,29228.88,15621.81,8336.88
1389507.823,2619.08,15927.03,37158.92,38809.3,26293.52,29179.0,15552.24,8335.93
1389507.825,1797.34,15904.19,37164.26,38836.58,26307.87,29112.49,15349.91,8361.29
1389507.827,1357.98,15888.03,37184.1,38873.2,26329.62,29084.69,15178.11,8366.92
1389507.829,1508.52,15888.6,37209.09,38898.52,26352.07,29107.81,15135.67,8379.75
1389507.831,2042.48,15895.18,37217.19,38881.12,26355.98,29157.59,15229.04,8399.49
1389507.833,2575.06,15884.97,37216.05,38844.54,26344.35,29215.15,15375.71,8402.25
1389507.835,3082.42,15900.28,37202.31,38808.21,26320.84,29268.46,15542.7,8385.37
1389507.837,3146.89,15900.57,37186.63,38787.99,26309.4,29284.86,15628.05,8367.3
1389507.839,2856.68,15928.46,37166.65,38789.47,26293.23,29246.48,15609.89,8340.55
1389507.841,2056.79,15921.4,37168.08,38824.23,26304.3,29175.86,15445.0,8349.85
1389507.843,1467.13,15905.76,37196.64,38875.06,26336.1,29119.97,15266.56,8379.75
1389507.845,1396.7,15895.89,37224.15,38901.67,26359.99,29136.95,15164.19,8407.69
1389507.847,1874.78,15897.94,37231.59,38890.99,26361.8,29192.4,15201.14,8412.65
1389507.849,2373.41,15876.58,37222.82,38859.99,26347.4,29220.97,15317.68,8390.14
1389507.851,2949.72,15881.92,37205.13,38826.37,26327.76,29238.61,15485.43,8359.29
1389507.853,3140.4,15883.11,37182.0,38793.62,26304.58,29260.54,15592.58,8334.07
1389507.855,3016.62,15904.14,37165.69,38792.28,26290.52,29239.23,15608.98,8322.91
1389507.857,2334.17,15917.92,37159.5,38813.6,26289.75,29178.0,15493.49,8327.58
1389507.859,1620.2,15901.9,37176.57,38867.29,26312.02,29121.07,15298.75,8351.61
1389507.861,1333.19,15891.46,37204.89,38912.11,26345.78,29089.88,15152.27,8374.17
1389507.863,1686.86,15897.42,37210.85,38901.57,26354.98,29104.09,15158.04,8383.61
1389507.865,2182.87,15890.41,37209.32,38869.72,26355.13,29151.78,15265.61,8393.0
1389507.867,2767.42,15884.69,37200.65,38827.9,26340.06,29188.92,15420.63,8388.38
1389507.869,3106.17,15886.02,37180.38,38798.43,26311.93,29206.85,15566.64,8359.1
1389507.871,3101.64,15900.23,37168.32,38797.76,26296.95,29214.05,15634.63,8339.55
1389507.873,2613.12,15929.27,37163.41,38807.54,26290.85,29174.52,15564.21,8334.45
1389507.875,1822.76,15909.86,37169.65,38831.52,26306.73,29114.01,15354.25,8346.27
1389507.877,1343.77,15885.59,37193.68,38871.34,26332.1,29082.73,15164.66,8366.63
1389507.879,1508.62,15885.12,37213.9,38894.37,26347.74,29098.32,15123.99,8376.74
1389507.881,2012.16,15885.5,37221.39,38876.97,26348.26,29144.53,15210.53,8384.85
1389507.883,2566.58,15867.04,37215.57,38837.25,26334.91,29188.16,15336.66,8355.38
1389507.885,3058.0,15888.5,37209.61,38804.82,26325.66,29232.7,15508.32,8325.96
1389507.887,3158.0,15901.52,37201.55,38799.05,26319.89,29251.96,15612.37,8323.48
1389507.889,2856.54,15923.22,37175.33,38794.47,26299.05,29208.47,15595.29,8325.43
1389507.891,2083.25,15922.98,37174.37,38829.52,26314.69,29143.77,15437.18,8363.06
1389507.893,1464.56,15903.9,37194.02,38877.11,26337.58,29109.91,15249.06,8399.44
1389507.895,1387.17,15884.54,37211.04,38899.95,26349.93,29104.28,15138.68,8407.69
1389507.897,1852.85,15890.27,37215.48,38884.12,26344.35,29132.61,15185.98,8401.44
1389507.899,2357.48,15866.9,37205.27,38848.79,26323.8,29174.24,15300.75,8379.13
1389507.901,2921.96,15871.91,37186.63,38810.5,26300.81,29211.38,15458.01,8342.74
1389507.903,3136.44,15880.97,37176.47,38792.57,26295.38,29227.16,15580.94,8328.63
1389507.905,3022.19,15918.54,37174.8,38795.38,26297.72,29223.73,15627.58,8334.78
1389507.907,2355.86,15926.46,37168.7,38812.26,26301.39,29171.33,15504.89,8343.36
1389507.909,1629.92,15909.24,37181.76,38849.6,26319.17,29120.35,15299.94,8361.15
1389507.911,1324.94,15884.5,37202.17,38884.12,26345.21,29096.65,15153.93,8382.46
1389507.913,1679.23,15899.56,37211.71,38897.04,26355.17,29113.82,15161.37,8383.94
1389507.915,2165.51,15879.06,37205.51,38878.02,26344.06,29162.32,15250.06,8374.36
1389507.917,2761.17,15888.07,37201.55,38841.92,26333.96,29217.91,15407.42,8367.97
1389507.919,3120.33,15902.76,37197.5,38796.24,26324.37,29262.21,15565.35,8358.29
1389507.921,3134.54,15921.26,37181.19,38779.31,26307.16,29265.12,15636.16,8328.01
1389507.923,2630.52,15928.89,37162.36,38786.42,26292.47,29198.51,15555.86,8313.13
1389507.925,1848.98,15920.35,37164.12,38818.65,26304.77,29133.47,15366.75,8331.25
1389507.927,1353.45,15897.18,37194.21,38869.67,26340.82,29109.77,15201.9,8373.79
1389507.929,1527.79,15900.71,37212.76,38889.46,26352.07,29123.36,15149.5,8388.9
1389507.931,2011.68,15902.57,37225.87,38879.97,26356.37,29165.51,15221.26,8400.25
1389507.933,2605.1,15919.5,37238.27,38872.77,26361.42,29224.92,15388.82,8409.07
1389507.935,3064.59,15907.62,37208.9,38830.09,26329.19,29244.24,15540.17,8368.45
1389507.937,3172.59,15905.53,37176.04,38793.66,26292.04,29244.24,15629.39,8320.9
1389507.939,2860.21,15927.7,37163.6,38789.18,26277.26,29222.92,15609.84,8301.69
1389507.941,2106.62,15918.45,37157.02,38813.26,26283.17,29166.51,15438.22,8314.32
1389507.943,1450.49,15889.41,37179.67,38854.89,26318.98,29127.74,15242.44,8363.53
1389507.945,1402.57,15888.6,37206.46,38891.27,26348.31,29130.61,15146.54,8392.14
1389507.947,1831.53,15884.07,37209.9,38885.03,26353.89,29163.03,15189.17,8386.99
1389507.949,2369.79,15871.77,37204.56,38865.14,26345.54,29192.83,15306.19,8365.44
1389507.951,2903.37,15869.05,37191.3,38831.81,26323.75,29206.18,15454.34,8330.78
1389507.953,3154.66,15881.11,37174.66,38803.25,26302.96,29226.16,15577.32,8323.81
1389507.955,3003.98,15902.38,37158.54,38787.37,26290.66,29215.72,15615.75,8328.01
1389507.957,2373.79,15922.17,37154.35,38800.24,26295.71,29171.95,15505.27,8335.31
1389507.959,1611.33,15896.66,37165.46,38829.28,26318.12,29120.11,15298.8,8360.34
1389507.961,1339.86,15888.74,37195.31,38876.92,26346.93,29105.29,15165.33,8377.55
1389507.963,1654.05,15892.32,37204.94,38881.78,26353.93,29110.67,15167.76,8378.79
1389507.965,2190.54,15888.03,37213.76,38869.1,26354.41,29160.93,15278.67,8383.75
1389507.967,2756.02,15884.12,37209.8,38843.25,26342.2,29218.82,15416.05,8373.64
1389507.969,3140.93,15895.46,37196.16,38824.28,26326.66,29249.0,15560.53,8349.9
1389507.971,3122.47,15908.2,37184.91,38810.07,26316.46,29257.92,15629.77,8343.41
1389507.973,2668.05,15940.24,37180.52,38817.08,26313.16,29233.84,15573.69,8353.66
1389507.975,1867.25,15933.85,37186.82,38856.18,26330.43,29176.38,15393.88,8361.25
1389507.977,1392.41,15914.63,37208.37,38909.82,26359.28,29140.67,15221.98,8372.26
1389507.979,1522.54,15913.87,37221.72,38921.17,26369.62,29129.89,15159.75,8392.62
1389507.981,2014.59,15903.76,37220.82,38894.75,26360.99,29159.84,15234.9,8395.63
1389507.983,2560.76,15893.89,37216.86,38845.88,26344.73,29216.44,15371.52,8376.17
1389507.985,3044.8,15890.65,37194.92,38794.71,26310.83,29251.82,15510.23,8340.07
1389507.987,3145.12,15901.95,37174.99,38774.3,26293.19,29260.78,15603.69,8329.49
1389507.989,2867.17,15929.22,37166.41,38787.56,26292.28,29215.05,15593.82,8331.35
1389507.991,2110.43,15935.71,37166.5,38831.14,26302.72,29143.24,15439.89,8335.5
1389507.993,1466.23,15906.38,37183.43,38875.63,26327.76,29110.15,15244.39,8356.81
1389507.995,1393.22,15901.62,37205.27,38900.14,26349.31,29105.33,15147.35,8385.99
1389507.997,1822.28,15897.42,37211.95,38876.92,26356.56,29120.88,15187.5,8397.72
1389507.999,2366.4,15898.28,37216.14,38844.73,26361.61,29174.95,15316.15,8398.01
1389508.001,2911.71,15888.74,37198.02,38806.11,26338.96,29226.26,15471.13,8376.55
1389508.003,3165.77,15904.24,37184.39,38789.8,26321.08,29256.3,15602.11,8355.71
1389508.005,3031.97,15926.41,37179.19,38800.34,26313.74,29256.63,15643.41,8347.18
1389508.007,2405.74,15946.29,37171.65,38830.24,26304.25,29204.32,15533.4,8333.16
1389508.009,1631.98,15908.29,37175.47,38874.87,26320.08,29138.52,15308.91,8330.06
1389508.011,1349.88,15889.12,37194.69,38903.91,26343.35,29127.51,15164.28,8356.24
1389508.013,1648.24,15886.07,37206.8,38888.32,26343.21,29151.11,15163.71,8373.74
1389508.015,2178.34,15885.07,37206.99,38850.74,26333.38,29180.1,15274.57,8375.79
1389508.017,2734.66,15874.05,37200.65,38811.45,26322.99,29212.14,15424.3,8364.2
1389508.019,3132.44,15891.79,37183.43,38773.73,26312.74,29239.47,15573.46,8341.98
1389508.021,3109.98,15903.67,37176.57,38767.63,26308.49,29261.69,15630.29,8332.44
1389508.023,2694.18,15954.78,37185.2,38806.49,26315.17,29253.06,15586.43,8337.69
1389508.025,1882.22,15944.67,37197.74,38847.98,26336.15,29211.95,15405.08,8361.58
1389508.027,1407.72,15917.45,37212.19,38888.79,26355.65,29147.77,15222.93,8380.32
1389508.029,1506.14,15899.28,37216.72,38900.43,26360.56,29122.4,15149.98,8377.6
1389508.031,2018.12,15895.8,37211.23,38882.83,26350.69,29154.26,15226.46,8368.64
1389508.033,2532.24,15871.67,37197.02,38831.76,26334.72,29174.81,15354.83,8346.75
1389508.035,3050.18,15883.21,37181.48,38784.79,26311.16,29207.04,15530.49,8322.24
1389508.037,3136.73,15882.59,37165.17,38764.39,26289.8,29216.01,15619.9,8313.47
1389508.039,2890.06,15920.02,37160.31,38786.56,26281.69,29201.94,15614.65,8323.48
1389508.041,2106.14,15921.93,37164.98,38824.37,26293.19,29151.01,15444.61,8332.92
1389508.043,1486.59,15900.76,37186.67,38862.9,26323.7,29110.63,15250.11,8356.72
1389508.045,1372.34,15886.17,37207.32,38887.93,26349.83,29106.67,15143.54,8378.41
1389508.047,1842.26,15897.75,37216.86,38883.36,26355.94,29163.32,15195.56,8386.66
1389508.049,2360.77,15897.71,37223.77,38864.76,26358.61,29235.94,15332.65,8397.58
1389508.051,2934.98,15892.79,37197.26,38818.22,26327.09,29263.69,15483.33,8370.35
1389508.053,3137.4,15880.78,37165.12,38771.11,26295.57,29238.23,15586.52,8337.55
1389508.055,3036.88,15906.24,37153.53,38772.97,26285.37,29217.91,15624.57,8325.29
1389508.057,2393.58,15928.6,37154.87,38801.96,26290.13,29177.62,15519.43,8331.63
1389508.059,1660.25,15913.06,37170.46,38847.21,26311.45,29137.66,15321.4,8352.61
1389508.061,1341.87,15902.33,37199.79,38883.74,26344.73,29125.17,15183.16,8377.84
1389508.063,1674.7,15912.92,37217.48,38888.98,26361.52,29153.97,15189.32,8389.38
1389508.065,2175.81,15905.1,37222.34,38861.8,26357.94,29199.46,15292.69,8388.42
1389508.067,2746.53,15887.02,37204.89,38816.03,26327.09,29238.32,15428.07,8366.01
1389508.069,3115.75,15891.22,37181.95,38778.74,26296.14,29258.06,15567.73,8339.55
1389508.071,3131.1,15903.47,37166.46,38770.58,26290.37,29252.1,15641.12,8327.77
1389508.073,2670.72,15933.71,37161.83,38787.51,26291.37,29210.05,15584.14,8324.53
1389508.075,1872.35,15914.82,37165.88,38822.85,26307.49,29143.91,15381.77,8336.21
1389508.077,1373.34,15896.99,37188.06,38869.05,26333.76,29118.92,15206.39,8362.82
1389508.079,1513.77,15906.72,37222.1,38902.67,26365.62,29155.59,15165.19,8391.19
1389508.081,2015.88,15910.96,37225.87,38886.98,26366.81,29202.46,15242.15,8388.19
1389508.083,2550.98,15889.46,37209.75,38842.64,26344.25,29224.59,15364.12,8368.45
1389508.085,3047.18,15887.98,37181.29,38794.57,26308.35,29236.37,15512.42,8324.19
1389508.087,3153.28,15890.79,37165.69,38771.11,26286.84,29240.33,15602.73,8301.4
1389508.089,2896.36,15927.75,37155.82,38786.23,26279.5,29202.7,15601.64,8298.45
1389508.091,2142.38,15934.9,37169.51,38838.72,26297.81,29156.64,15453.53,8310.32
1389508.093,1502.18,15908.29,37183.24,38880.16,26318.51,29112.15,15256.12,8329.44
1389508.095,1382.64,15886.36,37203.41,38891.7,26339.58,29116.54,15141.39,8367.68
1389508.097,1842.83,15907.15,37222.2,38882.02,26358.66,29168.04,15196.95,8394.39
1389508.099,2336.03,15877.01,37205.56,38847.07,26346.02,29196.79,15291.6,8373.21
1389508.101,2907.18,15877.3,37183.58,38807.02,26318.74,29229.84,15448.48,8354.43
1389508.103,3143.17,15885.4,37173.37,38783.27,26303.58,29252.53,15575.32,8343.32
1389508.105,3054.09,15920.69,37178.14,38789.18,26300.81,29257.4,15625.19,8327.25
1389508.107,2413.18,15934.23,37181.19,38820.37,26303.96,29197.12,15523.29,8322.91
1389508.109,1668.36,15914.35,37188.44,38861.28,26313.5,29106.86,15321.45,8343.65
1389508.111,1339.53,15896.08,37211.61,38895.99,26342.59,29100.09,15178.59,8385.42
1389508.113,1673.98,15908.15,37224.34,38889.08,26354.94,29128.03,15175.92,8401.68
1389508.115,2151.78,15883.3,37222.44,38844.97,26347.93,29157.21,15255.5,8395.01
1389508.117,2742.72,15882.4,37209.94,38813.5,26337.29,29216.01,15416.77,8381.13
1389508.119,3101.06,15880.3,37178.0,38775.83,26313.78,29244.81,15565.21,8358.62
1389508.121,3127.24,15895.03,37158.21,38760.67,26298.0,29242.47,15634.35,8342.79
1389508.123,2665.28,15920.31,37152.01,38779.45,26293.81,29197.22,15561.73,8330.06
1389508.125,1881.79,15904.71,37146.53,38809.45,26298.81,29123.6,15355.78,8325.39
1389508.127,1350.78,15872.43,37168.55,38851.98,26322.03,29085.5,15181.35,8348.47
1389508.129,1497.65,15884.07,37194.02,38876.92,26335.77,29099.37,15137.82,8366.87
1389508.131,1972.96,15889.5,37206.37,38867.72,26340.2,29159.98,15220.55,8373.98
1389508.133,2544.45,15891.94,37213.71,38853.51,26341.11,29205.52,15364.31,8369.59
1389508.135,3028.92,15899.33,37203.13,38822.85,26328.47,29249.29,15522.67,8334.26
1389508.137,3167.82,15907.24,37185.1,38817.12,26304.39,29259.59,15618.85,8295.06
1389508.139,2884.05,15931.47,37174.9,38814.07,26291.75,29230.03,15621.85,8297.97
1389508.141,2166.18,15951.64,37186.63,38836.25,26309.78,29184.3,15486.53,8338.64
1389508.143,1497.27,15929.41,37209.42,38872.34,26342.82,29155.5,15293.7,8380.32
1389508.145,1424.27,15934.18,37240.18,38902.67,26379.64,29161.74,15194.7,8414.56
1389508.147,1856.85,15952.97,37261.4,38907.82,26404.53,29212.34,15251.45,8426.67
1389508.149,2395.58,15942.53,37256.05,38885.26,26399.19,29272.56,15371.85,8427.53
1389508.151,2922.11,15926.46,37223.72,38832.05,26368.57,29301.41,15511.37,8404.16
1389508.153,3170.68,15917.21,37187.01,38792.09,26333.14,29295.16,15613.13,8365.54
1389508.155,3031.21,15929.99,37172.94,38789.71,26314.79,29258.87,15639.21,8346.32
1389508.157,2427.29,15941.43,37165.12,38811.74,26306.3,29209.52,15532.16,8343.17
1389508.159,1646.61,15909.15,37173.7,38844.78,26313.93,29139.9,15319.02,8350.8
1389508.161,1329.42,15889.69,37197.79,38879.49,26332.1,29091.27,15167.52,8367.35
1389508.163,1608.71,15885.93,37204.37,38875.16,26339.68,29097.61,15152.55,8371.83
1389508.165,2125.07,15877.01,37198.98,38846.83,26336.96,29137.76,15246.73,8364.82
1389508.167,2688.03,15874.2,37189.77,38812.12,26327.04,29187.68,15397.46,8351.8
1389508.169,3089.62,15878.15,37169.37,38771.97,26302.53,29218.82,15540.22,8328.01
1389508.171,3086.95,15891.12,37149.72,38754.18,26286.46,29220.16,15610.7,8314.09
1389508.173,2665.19,15919.31,37146.86,38776.78,26283.89,29193.4,15562.3,8317.42
1389508.175,1865.34,15899.23,37146.81,38804.06,26286.99,29119.78,15372.28,8323.43
1389508.177,1351.98,15863.33,37160.45,38839.06,26305.58,29073.48,15182.26,8338.93
1389508.179,1464.32,15868.95,37180.57,38858.08,26324.66,29081.92,15126.33,8349.32
1389508.181,1960.42,15870.38,37188.68,38843.25,26331.81,29134.47,15210.06,8350.23
1389508.183,2511.45,15869.43,37186.72,38822.23,26328.19,29195.12,15356.64,8345.99
1389508.185,3016.0,15874.34,37176.04,38799.24,26307.92,29240.75,15518.48,8332.3
1389508.187,3138.69,15877.06,37157.87,38772.06,26281.17,29236.22,15601.78,8311.08
1389508.189,2884.77,15904.14,37158.78,38779.64,26274.78,29215.96,15598.01,8299.73
1389508.191,2160.12,15924.41,37172.61,38807.64,26293.09,29175.14,15473.27,8320.05
1389508.193,1493.03,15891.65,37180.91,38843.59,26318.98,29139.09,15283.87,8349.9
1389508.195,1388.69,15888.74,37196.35,38867.38,26342.44,29149.68,15181.21,8379.7
1389508.197,1800.78,15889.17,37202.03,38861.95,26346.69,29191.21,15207.86,8383.18
1389508.199,2329.4,15875.06,37190.49,38819.17,26324.04,29229.84,15304.47,8353.43
1389508.201,2874.04,15865.28,37175.85,38779.93,26302.44,29237.75,15451.53,8319.57
1389508.203,3143.26,15873.24,37158.92,38764.43,26289.37,29240.13,15584.23,8310.03
1389508.205,3016.42,15888.07,37152.72,38775.07,26288.42,29211.52,15622.19,8316.42
1389508.207,2418.18,15900.42,37140.04,38780.17,26284.98,29154.69,15512.9,8313.28
1389508.209,1629.64,15869.76,37143.95,38809.97,26298.86,29099.04,15306.9,8317.57
1389508.211,1323.27,15862.28,37166.89,38842.73,26318.6,29084.83,15168.29,8333.87
1389508.213,1601.46,15866.23,37184.86,38842.49,26322.32,29108.19,15154.84,8351.57
1389508.215,2138.57,15878.82,37199.45,38829.95,26329.47,29157.79,15260.41,8369.02
1389508.217,2705.53,15885.55,37213.19,38815.07,26340.58,29220.25,15414.96,8388.19
1389508.219,3115.85,15890.65,37183.91,38777.55,26306.11,29229.84,15563.59,8357.34
1389508.221,3087.09,15882.4,37150.24,38757.66,26274.59,29219.44,15625.81,8321.19
1389508.223,2698.09,15922.36,37146.86,38788.9,26275.59,29197.84,15587.47,8306.65
1389508.225,1892.28,15911.34,37159.5,38835.63,26299.0,29146.39,15405.08,8323.34
1389508.227,1402.43,15892.98,37183.62,38878.73,26329.43,29116.2,15230.28,8357.86
1389508.229,1470.52,15879.35,37199.07,38878.97,26342.78,29117.59,15156.7,8377.93
1389508.231,1982.59,15881.11,37198.6,38843.06,26338.01,29155.4,15230.04,8377.6
1389508.233,2495.1,15865.95,37190.49,38807.59,26328.76,29198.94,15358.16,8365.54
1389508.235,3019.76,15869.91,37170.75,38767.72,26297.95,29229.45,15503.74,8334.35
1389508.237,3116.08,15862.9,37150.39,38740.4,26272.73,29239.42,15592.39,8309.89
1389508.239,2906.47,15900.28,37149.62,38754.42,26270.58,29234.94,15606.36,8305.22
1389508.241,2151.01,15904.24,37150.44,38782.46,26279.79,29183.3,15453.15,8313.85
1389508.243,1508.43,15882.78,37160.59,38818.65,26302.77,29123.17,15251.11,8336.26
1389508.245,1350.12,15864.18,37173.94,38842.64,26323.37,29080.54,15131.67,8352.33
1389508.247,1797.1,15879.3,37192.54,38847.74,26333.81,29119.5,15178.97,8356.72
1389508.249,2301.17,15870.14,37195.4,38811.83,26330.9,29185.44,15298.03,8354.38
1389508.251,2886.63,15882.21,37189.06,38784.89,26319.51,29249.72,15464.21,8338.4
1389508.253,3133.73,15891.84,37171.18,38769.35,26300.81,29268.94,15589.53,8306.93
1389508.255,3044.32,15913.2,37156.87,38772.16,26290.52,29244.57,15626.86,8296.2
1389508.257,2435.26,15943.58,37159.16,38807.21,26301.77,29191.55,15536.93,8315.14
1389508.259,1683.9,15915.2,37164.36,38841.78,26318.98,29114.68,15332.18,8338.69
1389508.261,1313.64,15874.86,37163.36,38853.36,26321.22,29065.23,15160.71,8340.31
1389508.263,1614.38,15880.44,37180.38,38855.51,26330.62,29091.74,15151.17,8355.76
1389508.265,2114.25,15880.78,37186.77,38831.14,26330.47,29151.82,15256.93,8350.18
1389508.267,2696.85,15879.06,37190.73,38815.74,26318.27,29214.53,15415.0,8343.46
1389508.269,3095.77,15890.79,37179.0,38789.37,26296.19,29254.96,15571.45,8336.64
1389508.271,3112.13,15894.7,37159.73,38768.73,26281.98,29252.1,15631.87,8327.63
1389508.273,2693.89,15928.7,37148.77,38772.78,26279.6,29212.76,15582.94,8325.05
1389508.275,1906.16,15924.5,37160.35,38808.78,26300.58,29161.08,15419.96,8342.7
1389508.277,1396.37,15913.06,37193.11,38857.27,26335.81,29136.66,15253.55,8368.21
1389508.279,1479.67,15902.0,37209.56,38875.49,26349.45,29148.34,15171.67,8379.17
1389508.281,1974.15,15905.86,37215.14,38862.76,26352.22,29185.97,15233.57,8384.51
1389508.283,2498.91,15884.74,37203.75,38827.28,26341.68,29214.96,15359.98,8370.83
1389508.285,3004.55,15886.79,37181.24,38789.71,26313.12,29244.57,15514.9,8332.21
1389508.287,3119.28,15884.93,37162.55,38764.67,26297.62,29255.44,15607.98,8312.46
1389508.289,2897.41,15914.25,37149.91,38768.87,26285.46,29216.25,15610.51,8303.64
1389508.291,2148.68,15908.39,37145.43,38788.56,26288.75,29158.88,15460.87,8314.32
1389508.293,1502.18,15886.4,37154.2,38817.84,26305.15,29094.7,15262.56,8340.98
1389508.295,1346.49,15867.52,37170.61,38841.11,26326.56,29069.33,15139.53,8361.72
1389508.297,1786.9,15887.26,37185.58,38847.16,26337.05,29110.01,15183.02,8370.73
1389508.299,2296.59,15883.3,37190.82,38831.62,26340.06,29167.46,15307.24,8367.92
1389508.301,2878.09,15889.74,37177.04,38790.8,26321.37,29212.0,15470.32,8342.55
1389508.303,3121.57,15886.55,37155.82,38751.18,26298.91,29231.27,15582.75,8321.81
1389508.305,3039.88,15907.91,37139.42,38748.46,26274.64,29216.91,15620.66,8304.36
1389508.307,2431.39,15925.36,37136.32,38773.73,26273.44,29165.32,15522.77,8300.45
1389508.309,1699.35,15918.69,37156.16,38831.95,26300.39,29117.87,15337.18,8329.25
1389508.311,1334.38,15894.56,37185.48,38873.92,26328.14,29098.94,15189.22,8359.24
1389508.313,1643.18,15908.53,37205.89,38891.75,26339.96,29125.41,15183.59,8360.82
1389508.315,2127.46,15896.42,37207.56,38867.14,26339.49,29172.57,15273.95,8352.19
1389508.317,2708.01,15891.94,37196.12,38823.47,26319.6,29216.44,15418.96,8343.55
1389508.319,3085.18,15890.79,37178.43,38775.64,26297.1,29246.72,15567.26,8335.78
1389508.321,3130.72,15909.91,37172.27,38766.2,26292.23,29260.21,15650.04,8330.25
1389508.323,2712.82,15945.25,37179.95,38796.14,26301.43,29234.32,15620.19,8338.6
1389508.325,1933.53,15923.12,37165.84,38813.31,26295.62,29161.55,15419.91,8328.49
1389508.327,1358.22,15870.53,37159.5,38833.86,26304.44,29115.16,15205.1,8330.97
1389508.329,1469.42,15882.64,37180.24,38858.61,26330.62,29143.05,15149.17,8352.57
1389508.331,1934.15,15887.74,37188.49,38850.69,26336.34,29191.16,15229.75,8352.28
1389508.333,2498.29,15883.88,37191.06,38830.9,26328.85,29221.11,15368.51,8351.99
1389508.335,2989.67,15883.64,37175.23,38790.18,26307.35,29250.15,15520.43,8333.06
1389508.337,3154.8,15902.19,37162.83,38767.39,26295.28,29274.66,15628.01,8324.77
1389508.339,2900.27,15930.8,37154.58,38768.44,26284.55,29241.18,15632.2,8317.42
1389508.341,2190.35,15940.0,37152.1,38804.44,26289.23,29171.52,15490.44,8320.28
1389508.343,1498.89,15901.57,37154.77,38834.67,26303.91,29093.41,15282.97,8333.73
1389508.345,1375.53,15891.41,37172.27,38867.14,26323.51,29082.83,15164.95,8346.42
1389508.347,1771.69,15898.52,37182.72,38857.85,26328.61,29135.42,15201.14,8358.72
1389508.349,2302.46,15892.84,37187.25,38833.29,26325.23,29192.88,15318.2,8353.43
1389508.351,2849.29,15894.32,37178.95,38803.77,26315.31,29236.27,15467.5,8341.74
1389508.353,3144.03,15902.85,37162.26,38785.18,26302.05,29256.49,15591.81,8332.63
1389508.355,3038.79,15921.4,37149.77,38785.41,26291.9,29246.81,15625.38,8330.87
1389508.357,2471.78,15947.87,37148.29,38810.64,26297.05,29196.79,15523.91,8341.22
1389508.359,1695.78,15927.7,37157.44,38846.64,26313.16,29140.19,15329.51,8356.76
1389508.361,1353.88,15911.58,37185.39,38886.5,26338.77,29118.97,15180.02,8379.27
1389508.363,1622.34,15926.89,37208.04,38898.0,26357.08,29142.86,15176.39,8396.29
1389508.365,2141.0,15922.69,37211.23,38869.48,26353.55,29197.65,15276.2,8390.57
1389508.367,2695.37,15911.72,37199.79,38822.7,26334.48,29241.8,15418.2,8364.3
1389508.369,3096.2,15899.85,37175.42,38765.58,26298.19,29245.67,15542.94,8311.51
1389508.371,3118.09,15909.2,37157.3,38751.08,26281.17,29261.78,15617.47,8299.97
1389508.373,2721.83,15936.95,37148.38,38767.87,26276.93,29238.18,15582.23,8315.99
1389508.375,1934.86,15931.37,37154.44,38809.83,26293.09,29155.16,15400.22,8344.79
1389508.377,1401.14,15903.14,37177.14,38857.56,26324.47,29100.71,15207.91,8374.17
1389508.379,1477.0,15903.76,37193.02,38874.96,26343.97,29099.37,15142.25,8386.28
1389508.381,1950.22,15897.09,37195.83,38854.41,26343.01,29123.36,15214.02,8381.46
1389508.383,2487.42,15894.18,37190.49,38828.23,26332.57,29171.76,15353.35,8366.97
1389508.385,2998.54,15899.9,37181.05,38799.1,26311.78,29218.92,15502.65,8345.03
1389508.387,3149.99,15912.87,37164.55,38783.08,26298.1,29219.82,15603.31,8318.62
1389508.389,2914.95,15934.52,37152.91,38792.23,26293.23,29201.03,15611.89,8318.95
1389508.391,2212.57,15954.69,37158.78,38830.95,26305.25,29159.31,15482.71,8336.59
1389508.393,1526.5,15926.41,37171.56,38874.3,26324.18,29113.01,15269.95,8357.14
1389508.395,1382.3,15911.06,37185.01,38895.99,26338.01,29104.47,15145.4,8373.79
1389508.397,1770.02,15904.48,37192.92,38869.81,26339.96,29130.99,15173.96,8375.79
1389508.399,2298.21,15901.14,37197.69,38834.86,26336.24,29169.47,15297.8,8371.45
1389508.401,2847.0,15898.09,37191.44,38808.26,26327.8,29210.14,15450.81,8351.52
1389508.403,3144.31,15907.43,37165.46,38777.4,26305.25,29235.37,15580.56,8331.35
1389508.405,3038.26,15912.39,37142.19,38759.95,26287.51,29230.46,15620.76,8317.66
1389508.407,2493.57,15952.88,37147.0,38788.47,26292.95,29193.21,15538.69,8323.86
1389508.409,1719.19,15937.0,37164.36,38832.0,26314.88,29150.3,15347.91,8345.75
1389508.411,1379.54,15918.88,37186.91,38866.72,26331.81,29128.7,15195.04,8371.26
1389508.413,1618.67,15919.97,37205.32,38877.06,26345.97,29148.15,15174.15,8391.33
1389508.415,2148.1,15929.03,37216.76,38864.28,26350.69,29190.73,15280.44,8393.05
1389508.417,2696.94,15931.18,37222.01,38844.02,26347.88,29244.95,15432.69,8394.91
1389508.419,3121.66,15929.08,37186.39,38789.32,26309.21,29262.16,15574.79,8359.53
1389508.421,3114.18,15918.4,37155.06,38758.9,26285.99,29251.34,15633.3,8333.02
1389508.423,2747.73,15951.59,37151.05,38773.92,26281.41,29210.62,15590.62,8321.38
1389508.425,1940.49,15937.38,37159.54,38808.26,26297.76,29148.01,15407.04,8329.2
1389508.427,1421.21,15914.73,37177.14,38855.7,26318.7,29111.77,15224.08,8346.22
1389508.429,1452.3,15901.0,37184.77,38876.49,26325.04,29122.17,15155.84,8338.21
1389508.431,1953.75,15904.29,37184.2,38854.84,26320.84,29178.81,15237.62,8338.02
1389508.433,2458.43,15888.31,37172.27,38815.79,26311.54,29228.36,15360.31,8349.61
1389508.435,3005.79,15907.24,37164.45,38788.47,26300.15,29271.32,15513.33,8346.99
1389508.437,3133.39,15916.49,37153.96,38778.07,26287.42,29272.7,15604.55,8335.4
1389508.439,2954.77,15956.31,37148.19,38794.43,26284.17,29256.2,15619.38,8341.84
1389508.441,2218.53,15964.32,37153.77,38826.47,26297.24,29183.25,15483.52,8347.32
1389508.443,1552.77,15928.94,37164.5,38861.33,26314.6,29108.67,15280.3,8347.27
1389508.445,1364.18,15903.0,37181.0,38880.59,26331.14,29098.66,15141.54,8349.13
1389508.447,1787.62,15912.11,37194.64,38870.63,26336.2,29148.92,15165.71,8366.3
1389508.449,2280.43,15900.09,37193.78,38832.19,26328.85,29193.02,15279.72,8373.4
1389508.451,2867.17,15911.87,37195.35,38802.77,26321.84,29248.19,15452.48,8361.05
1389508.453,3148.94,15935.47,37192.68,38792.66,26315.5,29280.14,15602.88,8340.26
1389508.455,3083.04,15950.59,37184.39,38798.38,26307.3,29278.0,15637.07,8335.07
1389508.4572,2501.92,15972.76,37181.48,38822.75,26309.83,29229.93,15539.08,8350.42
1389508.4592,1746.46,15950.35,37189.82,38849.98,26326.33,29161.89,15335.61,8373.79
1389508.4612,1359.46,15921.69,37200.36,38866.14,26339.68,29124.22,15173.29,8392.76
1389508.4632,1615.19,15923.17,37203.32,38880.11,26343.59,29138.85,15154.65,8392.76
1389508.4652,2106.09,15912.87,37189.54,38856.42,26332.05,29159.6,15247.97,8375.03
1389508.4672,2657.08,15890.5,37167.46,38810.45,26306.68,29169.9,15381.29,8346.46
1389508.4692,3068.73,15898.9,37152.39,38775.5,26289.23,29217.15,15532.21,8312.66
1389508.4712,3110.93,15912.2,37146.62,38771.54,26283.08,29251.48,15614.23,8304.31
1389508.4732,2735.28,15948.25,37139.66,38790.04,26279.36,29207.61,15578.84,8314.28
1389508.4752,1951.41,15941.57,37152.63,38829.57,26297.86,29122.31,15400.17,8341.55
1389508.4772,1417.35,15922.98,37178.9,38880.97,26331.52,29074.72,15226.27,8381.8
1389508.4792,1465.37,15913.87,37204.94,38906.72,26358.42,29090.93,15149.98,8407.74
1389508.4812,1946.97,15913.25,37203.98,38888.84,26352.22,29131.75,15208.91,8396.77
1389508.4832,2462.67,15899.8,37201.79,38849.74,26340.92,29172.57,15337.99,8375.22
1389508.4852,2998.3,15911.15,37191.63,38807.68,26317.93,29211.24,15500.12,8357.57
1389508.4872,3135.4,15906.05,37172.18,38769.11,26295.71,29231.5,15598.97,8346.99
1389508.489,2947.47,15939.24,37163.31,38773.26,26290.32,29218.15,15617.61,8347.8
1389508.491,2224.59,15945.67,37169.46,38808.06,26308.21,29163.03,15480.23,8360.01
1389508.493,1556.06,15923.17,37179.0,38848.74,26330.14,29110.48,15287.31,8370.11
1389508.495,1358.22,15900.42,37191.06,38877.83,26342.82,29094.27,15165.04,8379.75
1389508.497,1778.51,15919.54,37203.79,38877.68,26350.5,29143.48,15203.05,8386.47
1389508.499,2278.38,15906.38,37204.65,38855.99,26349.83,29200.99,15312.24,8384.23
1389508.501,2849.29,15896.89,37179.05,38810.31,26319.7,29233.13,15451.48,8353.81
1389508.503,3109.6,15891.27,37155.73,38780.88,26298.81,29234.79,15568.78,8334.54
1389508.505,3053.28,15913.97,37141.85,38784.75,26286.56,29212.19,15619.57,8321.91
1389508.507,2469.06,15924.69,37132.55,38801.25,26279.12,29164.37,15529.01,8315.61
1389508.509,1726.34,15910.91,37144.81,38835.58,26299.43,29111.58,15341.9,8336.12
1389508.511,1331.04,15889.5,37168.32,38865.14,26329.33,29096.56,15188.65,8364.11
1389508.513,1611.04,15910.82,37190.39,38883.21,26343.16,29139.09,15175.73,8374.84
1389508.515,2086.54,15898.61,37185.29,38852.03,26331.62,29191.31,15263.85,8364.34
1389508.517,2656.94,15890.46,37172.51,38811.55,26314.12,29238.66,15387.44,8336.97
1389508.519,3058.58,15891.6,37155.39,38783.84,26297.14,29272.99,15532.11,8317.04
1389508.521,3122.19,15903.76,37142.42,38772.35,26278.93,29277.66,15619.95,8315.23
1389508.523,2724.74,15924.46,37134.37,38782.41,26266.91,29222.16,15568.88,8314.47
1389508.525,1972.39,15930.61,37154.3,38826.85,26284.51,29156.45,15404.13,8339.02
1389508.527,1398.85,15906.38,37185.58,38869.77,26317.84,29109.39,15222.98,8370.54
1389508.529,1464.03,15910.06,37207.27,38893.47,26338.39,29100.61,15145.59,8390.71
1389508.531,1912.88,15906.15,37206.32,38869.1,26339.58,29134.85,15211.25,8398.44
1389508.533,2460.15,15898.85,37192.49,38835.91,26326.13,29184.77,15345.53,8373.79
1389508.535,2958.11,15899.52,37175.9,38796.43,26303.82,29234.6,15495.68,8347.94
1389508.537,3146.51,15914.39,37165.55,38777.98,26298.38,29265.07,15609.55,8353.9
1389508.539,2938.18,15945.87,37160.5,38791.14,26303.72,29237.32,15629.96,8365.82
1389508.541,2236.51,15941.24,37141.42,38802.68,26291.14,29148.11,15477.8,8342.41
1389508.543,1530.41,15909.72,37153.44,38836.39,26312.4,29103.47,15277.44,8345.08
1389508.545,1364.85,15895.51,37168.08,38869.43,26333.96,29098.42,15151.93,8364.96
1389508.547,1738.64,15894.37,37167.84,38856.61,26338.01,29130.13,15167.86,8374.41
1389508.549,2261.45,15884.31,37164.17,38835.15,26326.56,29182.72,15280.77,8370.54
1389508.551,2812.53,15887.79,37156.87,38797.14,26309.4,29235.03,15434.93,8357.1
1389508.553,3130.67,15903.9,37152.15,38766.48,26294.9,29261.74,15579.46,8346.32
1389508.555,3058.86,15925.31,37144.52,38760.62,26285.13,29266.5,15640.36,8335.07
1389508.557,2504.64,15937.28,37132.55,38775.64,26275.45,29198.13,15553.62,8326.91
1389508.559,1721.1,15911.2,37131.17,38806.49,26287.27,29126.46,15351.68,8334.73
1389508.561,1334.72,15877.53,37141.14,38833.96,26305.49,29074.39,15171.2,8346.7
1389508.563,1563.88,15883.5,37154.25,38840.92,26317.08,29074.48,15142.78,8360.2
1389508.565,2073.43,15882.35,37165.5,38828.57,26325.71,29134.23,15235.14,8369.02
1389508.567,2628.57,15881.73,37166.08,38805.63,26317.17,29193.55,15376.62,8358.29
1389508.569,3061.06,15887.88,37154.11,38782.93,26295.62,29230.74,15525.63,8323.53
1389508.571,3115.18,15903.57,37143.52,38777.55,26284.36,29234.6,15621.28,8301.78
1389508.573,2754.16,15935.9,37143.38,38806.63,26284.79,29201.65,15599.49,8300.21
1389508.575,1973.49,15934.37,37147.43,38845.97,26300.34,29125.84,15427.54,8319.24
1389508.577,1408.15,15905.05,37169.17,38883.36,26327.28,29079.87,15222.27,8339.84
1389508.579,1449.3,15907.62,37192.4,38908.1,26348.64,29091.93,15136.86,8373.12
1389508.581,1912.45,15903.9,37195.5,38883.98,26348.55,29142.67,15207.58,8397.25
1389508.583,2443.98,15893.8,37186.77,38833.81,26337.05,29197.03,15332.08,8399.92
1389508.585,2964.64,15892.03,37174.09,38788.08,26320.13,29250.77,15470.65,8381.61
1389508.587,3142.17,15904.0,37156.82,38759.67,26293.57,29252.96,15584.28,8349.37
1389508.589,2931.07,15923.07,37148.86,38766.05,26277.26,29206.18,15597.49,8333.3
1389508.591,2242.95,15936.28,37149.82,38797.05,26283.55,29152.02,15472.22,8345.94
1389508.593,1528.88,15900.57,37154.63,38826.42,26300.34,29091.41,15262.99,8358.0
1389508.595,1348.45,15885.74,37171.89,38851.17,26323.13,29078.01,15132.86,8373.6
1389508.597,1720.67,15887.74,37185.24,38850.55,26336.58,29119.88,15158.46,8383.66
1389508.599,2256.78,15891.51,37189.3,38824.56,26342.73,29178.34,15277.05,8384.51
1389508.601,2809.67,15896.13,37187.01,38798.15,26339.72,29233.36,15435.51,8375.93
1389508.603,3152.08,15925.36,37182.81,38788.94,26333.62,29274.61,15592.67,8368.78
1389508.605,3058.58,15922.21,37156.87,38769.44,26307.59,29256.49,15633.78,8342.55
1389508.607,2534.77,15942.58,37143.43,38787.08,26295.14,29203.9,15542.84,8328.11
1389508.609,1735.4,15915.3,37154.87,38825.66,26307.01,29142.14,15338.95,8343.03
1389508.611,1354.55,15891.6,37168.22,38855.56,26323.7,29106.43,15173.15,8359.72
1389508.613,1558.97,15889.12,37183.05,38879.02,26337.25,29110.77,15143.73,8363.1
1389508.615,2084.3,15894.94,37187.39,38869.1,26338.72,29151.78,15242.24,8355.43
1389508.617,2607.2,15882.21,37178.43,38837.25,26326.47,29190.93,15375.76,8341.93
1389508.619,3066.11,15901.0,37164.41,38803.15,26309.16,29224.83,15529.73,8328.92
1389508.621,3089.09,15898.37,37144.14,38775.4,26290.37,29227.02,15604.16,8321.43
1389508.623,2755.59,15929.41,37132.7,38777.4,26279.88,29184.92,15568.64,8320.81
1389508.625,1954.13,15919.02,37136.61,38804.11,26292.52,29120.35,15388.63,8335.31
1389508.627,1415.63,15899.37,37152.82,38846.59,26313.98,29086.4,15209.15,8361.63
1389508.629,1410.53,15889.55,37168.41,38864.81,26329.95,29089.6,15128.33,8371.31
1389508.631,1906.49,15898.52,37174.23,38844.26,26329.9,29141.48,15200.0,8366.97
1389508.633,2404.88,15878.35,37163.79,38807.11,26314.21,29190.69,15311.91,8358.86
1389508.635,2959.11,15887.93,37153.96,38777.21,26296.19,29243.95,15472.37,8351.85
1389508.637,3111.79,15894.84,37141.47,38753.61,26280.5,29247.57,15579.08,8335.59
1389508.639,2938.65,15916.16,37124.54,38754.42,26268.68,29203.18,15591.77,8310.51
1389508.641,2228.69,15923.17,37124.59,38782.08,26275.11,29142.14,15465.02,8321.67
1389508.643,1583.86,15926.94,37169.27,38852.74,26324.56,29124.41,15296.41,8377.22
1389508.645,1385.64,15929.18,37208.85,38897.47,26363.66,29122.55,15179.35,8406.35
1389508.647,1761.1,15912.73,37200.17,38867.43,26345.45,29134.8,15176.73,8377.27
1389508.649,2246.76,15894.56,37191.06,38833.67,26333.34,29178.19,15272.29,8368.16
1389508.651,2818.68,15892.08,37182.43,38798.86,26315.22,29225.02,15420.53,8356.91
1389508.653,3098.63,15882.88,37148.67,38750.03,26277.74,29232.55,15539.46,8320.86
1389508.655,3046.32,15892.08,37130.17,38734.92,26263.19,29215.43,15584.85,8307.36
1389508.657,2496.2,15911.63,37121.01,38746.6,26257.38,29155.88,15503.36,8308.03
1389508.659,1729.68,15887.69,37123.4,38777.31,26267.67,29116.54,15310.62,8316.57
1389508.661,1328.8,15870.57,37141.47,38813.02,26292.37,29081.63,15155.89,8341.55
1389508.663,1546.48,15872.53,37154.15,38833.38,26311.21,29075.58,15120.17,8353.57
1389508.665,2060.22,15890.89,37179.43,38838.06,26333.05,29130.03,15226.51,8369.35
1389508.667,2639.58,15908.1,37204.03,38837.39,26352.79,29215.63,15399.6,8384.18
1389508.669,3079.94,15922.5,37190.3,38810.59,26332.57,29246.52,15556.38,8356.76
1389508.671,3115.99,15910.91,37156.4,38779.22,26295.81,29231.74,15625.67,8314.8
1389508.673,2762.32,15928.56,37134.6,38769.44,26271.49,29179.29,15575.55,8294.68
1389508.675,1991.22,15928.41,37146.76,38812.45,26292.23,29140.09,15403.61,8318.52
1389508.677,1438.57,15908.91,37162.21,38854.89,26321.94,29102.28,15208.68,8347.42
1389508.679,1412.2,15873.34,37154.82,38853.46,26320.84,29076.53,15094.85,8343.94
1389508.681,1878.4,15871.57,37153.87,38829.14,26312.4,29099.04,15158.7,8324.1
1389508.683,2387.76,15857.6,37152.34,38796.24,26302.15,29128.46,15279.49,8318.38
1389508.685,2933.5,15870.95,37138.85,38750.03,26283.03,29174.71,15442.99,8316.71
1389508.687,3096.15,15873.1,37125.64,38722.76,26270.73,29210.67,15557.67,8319.52
1389508.689,2964.5,15929.46,37142.23,38760.38,26287.75,29224.49,15609.03,8340.17
1389508.691,2255.15,15926.74,37131.93,38786.13,26279.5,29146.25,15461.45,8323.43
1389508.693,1566.84,15896.7,37134.32,38820.41,26284.17,29074.2,15249.78,8329.58
1389508.695,1327.18,15870.24,37148.86,38851.46,26305.96,29053.36,15113.07,8347.18
1389508.697,1701.26,15861.99,37138.18,38826.18,26291.56,29063.04,15118.55,8334.69
1389508.699,2180.29,15845.01,37133.56,38786.46,26281.41,29105.33,15224.65,8337.16
1389508.701,2776.34,15870.38,37141.18,38762.72,26284.13,29166.42,15393.16,8343.79
1389508.703,3068.64,15877.49,37132.32,38733.77,26274.4,29193.12,15523.91,8331.68
1389508.705,3032.97,15891.27,37114.05,38722.62,26253.08,29186.16,15574.36,8309.51
1389508.707,2489.04,15906.86,37105.95,38743.5,26244.79,29140.0,15495.02,8299.73
1389508.709,1767.54,15920.02,37135.89,38817.65,26281.55,29107.38,15331.17,8333.87
1389508.711,1356.32,15906.0,37176.14,38877.16,26329.23,29106.72,15190.08,8375.41
1389508.713,1571.61,15891.6,37171.27,38863.57,26318.41,29109.72,15143.35,8361.15
1389508.715,2002.48,15848.3,37137.18,38802.2,26275.92,29123.02,15188.08,8316.52
1389508.717,2575.78,15850.4,37134.46,38776.93,26265.2,29177.81,15329.03,8309.17
1389508.719,3018.19,15874.63,37139.9,38769.01,26272.11,29220.54,15497.16,8323.81
1389508.721,3093.39,15883.21,37117.68,38752.7,26252.08,29215.05,15588.91,8295.92
1389508.723,2761.84,15938.9,37129.12,38785.99,26269.82,29211.1,15593.1,8296.35
1389508.725,2029.37,15949.39,37139.85,38819.37,26293.66,29151.73,15437.7,8319.28
1389508.727,1397.28,15883.11,37124.02,38812.36,26284.08,29078.92,15205.0,8315.28
1389508.729,1397.28,15855.84,37119.11,38800.86,26276.93,29061.51,15089.37,8309.89
1389508.731,1836.25,15862.99,37132.03,38786.08,26289.51,29100.37,15152.74,8316.66
1389508.733,2420.95,15900.61,37179.14,38806.73,26327.9,29174.24,15325.5,8361.34
1389508.735,2934.93,15898.85,37163.31,38772.06,26305.49,29217.15,15475.66,8342.65
1389508.737,3092.58,15866.0,37104.47,38708.88,26241.26,29194.69,15547.47,8280.85
1389508.739,2879.95,15863.37,37072.62,38685.23,26205.78,29158.69,15542.94,8245.23
1389508.741,2217.44,15872.53,37071.52,38710.17,26203.68,29110.58,15422.25,8249.05
1389508.743,1567.75,15915.49,37154.01,38815.79,26289.75,29137.57,15296.22,8342.31
1389508.745,1369.05,15899.14,37169.32,38846.07,26308.92,29120.88,15158.13,8370.54
1389508.747,1649.43,15837.24,37108.9,38774.3,26249.32,29066.38,15099.96,8312.42
1389508.749,2151.3,15812.92,37097.7,38742.45,26236.68,29081.3,15184.21,8287.57
1389508.751,2714.06,15825.27,37104.04,38727.29,26235.77,29134.42,15355.06,8257.2
1389508.753,3071.5,15858.27,37114.77,38724.57,26244.55,29185.06,15526.58,8263.54
1389508.755,3050.04,15903.19,37136.94,38747.51,26265.53,29218.92,15619.23,8300.69
1389508.757,2598.81,15981.01,37195.59,38827.81,26323.99,29241.09,15579.61,8371.69
1389508.759,1797.63,15932.85,37169.41,38829.0,26304.68,29172.09,15346.24,8358.34
1389508.761,1306.96,15831.62,37113.58,38785.65,26250.79,29068.38,15113.12,8303.31
1389508.763,1598.45,15927.75,37221.53,38886.17,26356.37,29163.41,15174.96,8410.6
1389508.765,2157.02,15979.1,37283.81,38934.0,26414.92,29230.03,15313.44,8466.2
1389508.767,2532.29,15799.43,37095.74,38729.62,26217.18,29101.33,15280.92,8261.87
1389508.769,2865.22,15699.2,36975.77,38592.34,26088.19,29053.41,15330.46,8128.55
1389508.771,2971.7,15749.12,37002.23,38610.37,26118.23,29097.47,15455.34,8152.3
1389508.773,2689.79,15827.61,37048.06,38660.77,26173.55,29105.91,15479.23,8201.98
1389508.775,1955.46,15848.21,37066.03,38702.87,26206.54,29055.88,15336.8,8236.7
1389508.7769,1390.36,15839.15,37100.75,38772.49,26252.61,29030.85,15167.76,8285.43
1389508.7789,1371.29,15818.74,37095.93,38779.79,26249.41,29015.83,15064.34,8281.76
1389508.7809,1784.99,15791.32,37071.71,38742.02,26222.04,29036.67,15090.47,8252.91
1389508.7829,2389.72,15866.28,37148.15,38786.94,26292.76,29169.23,15295.65,8323.81
1389508.7849,2939.65,15886.5,37160.31,38764.05,26298.67,29230.46,15474.85,8334.78
1389508.7869,3072.07,15831.28,37074.09,38665.68,26209.41,29180.2,15522.15,8241.23
1389508.7889,2864.41,15829.52,37043.48,38641.27,26176.03,29148.53,15524.48,8212.33
1389508.7909,2196.5,15833.09,37028.75,38654.71,26161.1,29065.76,15391.97,8204.22
1389508.7929,1488.02,15817.74,37055.78,38707.74,26188.28,29016.88,15204.86,8238.46
1389508.7949,1270.58,15797.57,37059.12,38729.24,26192.0,28989.37,15059.28,8247.57
1389508.7969,1607.13,15793.61,37064.03,38722.81,26195.58,29022.74,15060.19,8242.18
1389508.7989,2152.35,15812.54,37093.36,38730.29,26217.75,29091.17,15193.46,8240.03
1389508.8009,2667.0,15780.64,37064.51,38676.12,26181.61,29097.94,15323.59,8184.48
1389508.8029,3017.9,15798.9,37053.21,38658.77,26165.92,29120.26,15462.54,8182.0
1389508.8049,3035.02,15895.75,37126.97,38745.12,26244.26,29203.18,15598.3,8286.57
1389508.8069,2616.45,15988.16,37184.43,38822.56,26302.25,29222.21,15583.47,8354.14
1389508.809,1692.06,15830.33,37050.59,38713.65,26182.13,29040.39,15258.98,8235.93
1389508.811,1254.89,15777.64,37032.27,38728.05,26175.41,28990.18,15062.76,8236.7
1389508.813,1436.62,15781.64,37051.73,38746.27,26190.67,29014.64,15026.05,8250.62
1389508.815,1941.4,15776.3,37042.19,38711.31,26172.26,29050.4,15104.44,8232.4
1389508.817,2470.92,15784.84,37054.4,38689.0,26179.51,29103.28,15263.51,8239.99
1389508.819,2947.71,15796.71,37035.04,38647.04,26158.15,29140.38,15417.96,8205.41
1389508.821,3001.12,15801.43,37024.5,38629.97,26146.51,29145.2,15507.6,8183.19
1389508.823,2714.21,15841.06,37025.41,38638.93,26147.75,29092.65,15501.17,8191.59
1389508.825,1890.47,15791.13,36988.17,38624.82,26115.09,28985.93,15283.01,8165.27
1389508.827,1337.91,15777.78,37024.41,38680.03,26154.57,28965.29,15092.37,8204.65
1389508.829,1317.93,15783.45,37062.89,38721.04,26191.52,28987.84,15024.47,8238.13
1389508.831,1768.78,15769.2,37050.11,38688.38,26172.74,29007.87,15071.35,8216.62
1389508.833,2259.87,15755.32,37045.86,38660.72,26163.63,29053.21,15182.88,8210.56
1389508.835,2846.96,15796.9,37065.61,38665.73,26180.84,29130.61,15374.09,8224.25
1389508.837,3029.01,15809.2,37052.4,38652.57,26169.49,29148.53,15498.54,8204.56
1389508.839,2856.64,15808.16,37012.01,38627.53,26132.49,29111.44,15494.97,8161.97
1389508.8409,2191.35,15838.86,37024.74,38672.88,26156.86,29073.72,15390.3,8184.86
1389508.8429,1550.58,15860.75,37077.62,38750.08,26218.42,29078.73,15242.15,8257.34
1389508.8449,1299.29,15838.62,37092.59,38768.25,26231.34,29063.32,15100.15,8284.24
1389508.8469,1639.32,15816.26,37076.72,38744.6,26212.74,29070.91,15082.12,8262.25
1389508.8489,2075.34,15758.56,37026.31,38668.26,26158.24,29072.05,15146.07,8199.41
1389508.8509,2642.35,15762.52,37027.03,38637.4,26146.89,29106.62,15304.52,8192.73
1389508.8529,3018.71,15824.94,37067.85,38658.81,26185.32,29189.88,15495.45,8237.74
1389508.8549,3019.71,15861.42,37082.1,38680.61,26200.49,29207.81,15579.61,8254.0
1389508.8569,2443.41,15816.88,37003.52,38641.36,26124.81,29075.44,15437.75,8161.83
1389508.8589,1646.57,15777.16,36992.13,38671.93,26119.47,28976.63,15219.98,8148.96
1389508.8609,1237.3,15772.63,37028.89,38723.38,26160.91,28935.77,15065.24,8202.7
1389508.8629,1437.38,15782.93,37057.31,38744.88,26192.95,28969.58,15033.58,8237.51
1389508.8649,1957.23,15804.67,37085.25,38743.64,26214.56,29055.74,15145.73,8250.19
1389508.8669,2498.34,15804.24,37089.5,38721.38,26209.12,29118.68,15292.6,8244.56
1389508.8689,2951.91,15812.21,37067.23,38681.56,26177.5,29153.78,15442.42,8219.05
1389508.8709,3008.99,15800.91,37036.18,38640.89,26143.74,29147.77,15513.14,8183.58
1389508.8729,2718.74,15856.94,37044.1,38661.48,26156.05,29128.84,15518.05,8200.6
1389508.8749,2006.63,15910.91,37106.76,38748.51,26229.53,29122.59,15414.76,8289.53
1389508.8769,1408.1,15859.65,37095.65,38756.23,26223.33,29060.03,15200.09,8293.63
1389508.8789,1275.35,15759.28,37025.31,38683.75,26152.76,28981.5,15018.66,8215.81
1389508.8809,1741.22,15768.05,37031.7,38675.36,26156.62,29023.08,15074.3,8209.42
1389508.8829,2269.98,15782.74,37061.6,38683.56,26188.14,29097.51,15223.27,8236.22
1389508.8849,2861.21,15834.24,37092.59,38694.43,26215.89,29177.29,15422.16,8262.49
1389508.8869,3079.84,15869.67,37108.76,38703.45,26233.72,29229.12,15573.41,8279.56
1389508.8889,2898.84,15846.64,37045.58,38654.76,26169.4,29166.13,15555.53,8216.72
1389508.8909,2206.04,15839.72,37034.33,38669.07,26164.58,29087.74,15424.06,8210.76
1389508.8929,1537.99,15837.15,37063.65,38722.71,26208.69,29036.29,15239.72,8239.46
1389508.8949,1270.06,15814.26,37084.73,38757.14,26231.29,29010.73,15073.83,8255.48
1389508.8969,1630.83,15818.26,37082.1,38746.79,26219.66,29021.74,15065.0,8251.48
1389508.8989,2096.65,15793.09,37069.75,38710.69,26203.68,29056.27,15166.57,8236.84
1389508.9009,2687.74,15809.35,37076.53,38695.39,26196.91,29119.69,15333.42,8232.64
1389508.9029,3029.54,15840.91,37091.45,38694.29,26202.78,29178.96,15499.16,8232.79
1389508.9049,3018.19,15851.31,37073.09,38688.81,26180.65,29176.52,15559.48,8219.86
1389508.9069,2489.95,15857.79,37051.01,38696.91,26163.3,29123.55,15477.42,8215.67
1389508.9089,1717.52,15828.13,37037.62,38700.73,26163.1,29057.6,15284.06,8225.49
1389508.9109,1254.51,15797.38,37053.54,38716.37,26192.24,29021.27,15119.17,8258.77
1389508.9129,1474.05,15815.26,37081.44,38741.26,26226.09,29036.86,15067.96,8281.52
1389508.9149,1945.92,15811.11,37088.21,38729.0,26228.86,29094.32,15155.75,8277.32
1389508.9169,2507.02,15808.39,37082.49,38709.84,26216.61,29151.97,15298.65,8261.16
1389508.9189,2955.82,15822.13,37078.43,38689.24,26208.69,29210.33,15466.45,8250.67
1389508.9209,3055.81,15831.33,37058.5,38661.87,26191.62,29200.51,15557.1,8232.93
1389508.9229,2731.28,15862.42,37054.45,38671.36,26186.66,29162.32,15537.07,8229.4
1389508.9249,2000.57,15866.09,37063.56,38705.69,26199.87,29090.74,15372.09,8238.55
1389508.9269,1382.92,15840.29,37082.34,38746.31,26225.76,29057.22,15188.03,8262.21
1389508.9289,1364.14,15834.14,37091.69,38766.82,26238.4,29058.79,15090.99,8284.24
1389508.9309,1796.25,15837.15,37095.41,38753.66,26240.02,29101.66,15146.69,8286.38
1389508.9329,2327.59,15835.1,37096.89,38737.11,26232.67,29152.49,15274.15,8278.18
1389508.9349,2857.97,15846.92,37098.6,38714.22,26227.57,29211.48,15436.13,8275.18
1389508.9369,3095.91,15868.62,37099.75,38698.49,26232.34,29242.23,15571.74,8274.99
1389508.9389,2941.56,15889.31,37088.21,38697.2,26215.22,29224.73,15594.77,8260.06
1389508.9409,2298.88,15898.52,37083.68,38725.19,26206.54,29161.55,15472.84,8256.15
1389508.9429,1570.42,15871.05,37091.97,38763.81,26222.57,29083.88,15274.57,8275.99
1389508.9449,1320.03,15845.35,37104.52,38791.33,26240.73,29043.82,15129.19,8292.72
1389508.9469,1636.36,15838.53,37105.52,38779.74,26235.06,29062.32,15136.43,8288.53
1389508.9489,2135.18,15815.45,37090.31,38742.02,26218.23,29111.34,15235.09,8260.68
1389508.9509,2687.6,15820.46,37087.64,38717.18,26212.17,29172.38,15377.43,8250.14
1389508.9529,3058.91,15850.45,37095.31,38729.15,26219.75,29232.12,15515.19,8242.7
1389508.9549,3041.74,15882.11,37096.17,38737.35,26218.94,29249.81,15595.53,8248.57
1389508.9569,2560.52,15904.57,37088.78,38754.9,26210.93,29204.13,15533.35,8259.63
1389508.9589,1763.63,15868.71,37075.33,38748.65,26207.74,29115.49,15319.49,8266.83
1389508.9609,1297.76,15823.18,37084.97,38752.56,26218.47,29028.61,15128.52,8284.52
1389508.9629,1492.17,15853.12,37130.07,38792.85,26256.95,29050.02,15111.5,8325.53
1389508.9649,1989.65,15858.99,37142.0,38772.44,26267.72,29111.2,15202.24,8338.93
1389508.9669,2525.95,15852.88,37129.98,38739.16,26256.9,29163.79,15343.91,8320.05
1389508.9689,2997.16,15869.76,37124.92,38721.18,26254.61,29222.21,15511.09,8305.03
1389508.9709,3092.34,15881.83,37106.47,38705.5,26240.26,29242.04,15609.22,8286.29
1389508.9729,2778.29,15899.28,37090.5,38714.13,26228.91,29221.35,15586.04,8279.99
1389508.9749,2045.77,15909.63,37102.66,38753.94,26251.84,29178.29,15432.26,8304.17
1389508.9769,1434.04,15881.97,37126.74,38796.1,26281.5,29137.85,15238.0,8334.3
1389508.9789,1385.59,15869.33,37135.18,38807.68,26286.99,29118.02,15141.3,8339.36
1389508.9809,1814.08,15867.81,37140.8,38802.63,26287.75,29141.0,15190.79,8338.36
1389508.9829,2348.14,15869.43,37145.71,38792.76,26283.89,29185.49,15323.45,8330.73
1389508.9849,2881.1,15873.96,37138.04,38768.01,26269.82,29259.88,15476.9,8304.55
1389508.9869,3118.94,15897.56,37133.51,38751.03,26262.38,29290.01,15605.4,8284.28
1389508.9889,2967.31,15929.37,37138.13,38764.77,26265.43,29281.86,15642.41,8292.87
1389508.9909,2338.08,15946.2,37132.98,38782.08,26265.1,29181.2,15520.24,8308.94
1389508.9929,1567.51,15886.74,37112.72,38791.57,26253.56,29062.99,15282.06,8302.69
1389508.9949,1304.67,15852.64,37109.76,38814.45,26247.46,29050.26,15133.91,8303.4
1389508.9969,1625.2,15856.65,37123.83,38828.85,26258.71,29101.28,15148.31,8307.51
1389508.9989,2159.12,15868.43,37135.51,38801.29,26267.39,29173.47,15271.28,8310.03
1389509.0009,2706.0,15868.71,37137.8,38762.76,26260.43,29226.78,15416.39,8299.97
1389509.0029,3059.34,15869.76,37113.58,38715.46,26229.53,29232.51,15534.07,8271.36
1389509.0049,3018.95,15880.63,37102.37,38704.21,26224.04,29226.31,15592.96,8272.79
1389509.0069,2585.22,15931.99,37110.48,38744.26,26236.11,29209.09,15556.81,8295.3
1389509.0089,1789.28,15919.31,37125.07,38786.42,26263.34,29119.26,15377.62,8319.19
1389509.0109,1358.41,15898.23,37143.09,38825.9,26291.9,29067.95,15207.01,8336.35
1389509.0129,1502.47,15900.42,37163.64,38845.45,26309.92,29096.56,15161.66,8357.91
1389509.0149,2018.83,15901.38,37164.64,38818.27,26305.87,29151.25,15247.78,8356.24
1389509.0169,2531.34,15880.59,37155.25,38781.12,26288.8,29198.55,15369.85,8336.07
1389509.0189,3032.83,15901.23,37151.67,38765.63,26276.07,29244.95,15543.03,8321.48
1389509.0209,3107.83,15917.64,37152.82,38767.68,26276.78,29264.79,15649.18,8322.38
1389509.0229,2828.03,15934.66,37131.46,38760.76,26245.5,29229.88,15624.48,8296.3
1389509.0249,2024.75,15899.09,37106.66,38754.09,26224.81,29143.86,15407.18,8282.33
1389509.0269,1419.31,15859.65,37110.71,38779.64,26235.77,29076.77,15185.93,8302.74
1389509.0289,1362.04,15867.57,37147.1,38832.0,26283.17,29086.74,15101.77,8347.13
1389509.0309,1860.67,15904.67,37179.19,38854.32,26322.03,29163.22,15171.58,8379.41
1389509.0329,2371.74,15906.53,37189.39,38835.77,26335.86,29215.77,15300.08,8393.81
1389509.0349,2909.61,15890.65,37157.92,38787.32,26301.86,29209.24,15443.09,8352.52
1389509.0369,3093.24,15889.12,37133.51,38756.61,26280.45,29188.92,15552.76,8314.56
1389509.0389,2974.89,15915.4,37124.88,38759.33,26272.87,29184.3,15585.52,8303.31
1389509.0409,2321.39,15929.37,37119.77,38778.55,26267.34,29128.75,15464.5,8302.26
1389509.0429,1604.37,15899.09,37126.74,38807.3,26279.88,29073.38,15260.6,8321.0
1389509.0449,1337.29,15896.23,37158.68,38853.94,26314.31,29075.01,15138.82,8362.87
1389509.0469,1741.84,15968.94,37236.03,38925.89,26384.79,29166.99,15212.97,8442.45
1389509.0489,2265.36,15988.49,37261.63,38922.65,26402.33,29236.94,15339.38,8462.19
1389509.0509,2737.67,15888.88,37159.16,38787.18,26288.04,29196.22,15386.39,8332.3
1389509.0529,3031.21,15849.97,37093.31,38702.68,26220.61,29175.62,15484.14,8249.09
1389509.0549,3057.15,15902.38,37125.12,38736.2,26253.04,29226.12,15594.63,8282.23
1389509.0569,2638.05,15976.48,37162.98,38803.25,26293.19,29232.31,15583.95,8336.02
1389509.0589,1838.83,15932.94,37148.24,38813.93,26288.46,29142.48,15363.74,8337.16
1389509.0609,1363.33,15892.6,37148.62,38839.2,26293.33,29082.25,15165.62,8340.79
1389509.0629,1532.03,15918.4,37189.77,38874.2,26336.01,29125.41,15146.45,8394.05
1389509.0649,2044.01,15939.62,37205.27,38868.38,26352.65,29191.93,15249.3,8413.94
1389509.0669,2576.45,15925.7,37201.6,38829.67,26343.3,29266.03,15390.06,8402.3
1389509.0689,3062.39,15942.29,37191.78,38789.94,26327.42,29319.0,15552.43,8378.89
1389509.0709,3166.25,15961.6,37197.79,38792.04,26331.43,29338.12,15668.16,8379.41
1389509.0729,2911.42,16004.14,37203.22,38825.23,26335.34,29324.34,15668.11,8382.32
1389509.0749,2162.03,16013.62,37214.24,38877.78,26360.71,29282.48,15515.0,8397.53
1389509.0769,1552.92,15976.86,37217.76,38904.81,26373.53,29163.89,15299.37,8403.3
1389509.0789,1424.12,15919.64,37199.22,38891.89,26358.42,29088.26,15157.51,8394.39
1389509.0809,1857.19,15910.77,37190.39,38875.06,26346.5,29103.85,15208.1,8385.04
1389509.0829,2356.67,15898.37,37187.34,38861.71,26341.25,29163.75,15341.81,8379.37
1389509.0849,2942.23,15930.65,37196.07,38838.34,26339.49,29253.34,15519.43,8382.75
1389509.0869,3151.8,15940.62,37190.44,38808.87,26327.47,29286.77,15613.22,8380.08
1389509.0889,3022.58,15950.92,37165.26,38780.5,26312.21,29243.43,15631.06,8364.96
1389509.0909,2378.42,15969.76,37171.42,38808.54,26328.57,29182.29,15527.01,8380.56
1389509.0929,1688.86,15966.75,37196.93,38861.42,26363.52,29143.86,15348.01,8410.41
1389509.0949,1379.39,15934.61,37210.52,38888.6,26375.49,29121.88,15199.38,8425.33
1389509.0969,1733.02,15950.01,37228.4,38895.52,26381.92,29160.12,15207.24,8433.72
1389509.0989,2211.14,15941.57,37231.83,38874.54,26378.54,29212.67,15305.71,8425.0
1389509.1009,2792.36,15938.33,37222.1,38847.83,26365.43,29254.01,15452.24,8404.21
1389509.1029,3110.93,15921.74,37183.1,38800.29,26329.52,29256.97,15570.36,8365.54
1389509.1049,3099.82,15916.68,37142.61,38763.72,26292.61,29240.99,15610.84,8333.25
1389509.1069,2625.18,15953.73,37144.09,38785.75,26298.81,29210.76,15558.01,8348.99
1389509.1089,1900.39,15976.86,37187.15,38848.93,26346.88,29184.3,15402.51,8400.97
1389509.1109,1437.76,15976.14,37239.99,38918.88,26404.77,29172.09,15252.21,8456.47
1389509.1129,1618.48,15992.6,37265.83,38947.73,26425.56,29199.99,15218.93,8473.68
1389509.1149,2052.97,15959.88,37238.08,38896.71,26388.74,29217.1,15273.29,8426.48
1389509.1169,2581.41,15928.46,37205.03,38839.77,26348.55,29216.2,15379.86,8380.65
1389509.1189,3024.86,15918.07,37180.43,38793.57,26322.75,29233.94,15517.76,8348.18
1389509.1209,3143.26,15925.12,37170.22,38778.5,26321.75,29246.67,15609.22,8356.14
1389509.1229,2857.83,15962.65,37174.75,38797.67,26336.91,29233.32,15607.31,8384.47
1389509.1249,2156.78,15988.02,37193.35,38850.03,26364.33,29197.03,15473.32,8415.41
1389509.1269,1526.79,15969.23,37219.72,38898.62,26395.94,29165.22,15290.93,8450.18
1389509.1289,1494.55,15984.2,37260.44,38940.48,26435.66,29190.35,15217.07,8489.37
1389509.1309,1930.86,16005.71,37289.81,38945.68,26464.37,29239.56,15275.81,8508.06
1389509.1329,2436.88,15974.71,37267.55,38903.05,26437.48,29255.92,15372.18,8476.07
1389509.1349,2944.99,15955.59,37237.93,38856.8,26402.29,29274.28,15502.79,8438.4
1389509.1369,3180.31,15948.77,37210.95,38828.0,26372.72,29279.71,15606.55,8407.64
1389509.1389,3023.43,15946.34,37175.95,38808.68,26337.29,29252.34,15615.89,8377.74
1389509.1409,2400.16,15959.98,37171.85,38826.09,26345.4,29203.8,15501.69,8381.03
1389509.1429,1675.89,15956.26,37204.65,38868.34,26392.18,29172.61,15321.11,8431.1
1389509.1449,1419.35,15958.02,37252.72,38930.85,26440.29,29170.09,15198.42,8477.36
1389509.1469,1724.48,15957.31,37256.05,38931.04,26440.81,29184.77,15193.27,8481.07
1389509.1489,2234.89,15950.4,37260.11,38923.32,26445.01,29257.06,15297.37,8482.27
1389509.1509,2800.37,15958.22,37260.73,38922.03,26449.87,29320.58,15460.92,8470.92
1389509.1529,3170.97,15971.38,37247.71,38904.34,26441.58,29334.88,15624.1,8450.46
1389509.1549,3162.34,15990.97,37241.46,38891.7,26436.0,29299.6,15696.48,8435.49
1389509.1569,2712.11,16021.35,37249.52,38921.65,26457.27,29254.58,15617.42,8462.1
1389509.1589,1933.91,16012.34,37263.35,38955.12,26482.39,29176.19,15409.9,8489.61
1389509.1609,1452.4,15976.34,37278.9,39008.91,26506.33,29113.73,15216.78,8514.07
1389509.1629,1600.17,15986.59,37302.26,39051.59,26540.43,29139.57,15176.35,8538.82
1389509.1649,2091.26,15995.55,37321.72,39034.99,26564.03,29210.86,15274.34,8572.72
1389509.1669,2638.58,15992.21,37318.47,38995.8,26561.93,29265.12,15413.86,8580.97
1389509.1689,3103.92,15982.77,37290.2,38953.93,26527.03,29297.59,15555.86,8531.62
1389509.1709,3197.62,15978.24,37258.44,38938.96,26502.9,29293.87,15640.69,8511.26
1389509.1729,2890.54,15982.58,37236.41,38954.36,26484.06,29245.9,15614.89,8499.53
1389509.1749,2153.97,15984.2,37243.61,38961.84,26500.9,29191.45,15462.31,8502.48
1389509.1769,1496.65,15929.75,37248.14,38924.6,26521.02,29137.9,15245.87,8534.24
1389509.1789,1414.59,15910.77,37255.58,38896.71,26538.52,29124.79,15135.72,8572.29
1389509.1809,1846.84,15927.89,37284.52,38890.99,26577.0,29168.28,15195.32,8615.45
1389509.1829,2403.93,15951.49,37308.13,38891.03,26602.41,29232.31,15345.38,8633.33
1389509.1849,2934.46,15947.01,37290.72,38855.27,26584.91,29284.05,15499.02,8603.86
1389509.1869,3158.43,15932.18,37239.27,38798.43,26524.74,29266.27,15597.54,8545.3
1389509.1889,3012.8,15942.19,37222.06,38800.2,26510.62,29243.19,15624.67,8529.62
1389509.1909,2418.47,15972.09,37230.45,38843.06,26526.36,29202.75,15533.21,8537.01
1389509.1929,1653.86,15935.57,37236.74,38886.5,26540.33,29144.34,15322.59,8544.26
1389509.1949,1369.91,15912.44,37249.95,38926.32,26562.03,29115.63,15163.47,8559.04
1389509.1969,1662.78,15912.82,37266.97,38951.97,26574.66,29125.46,15150.02,8565.38
1389509.1989,2186.68,15914.59,37273.75,38943.2,26567.18,29182.25,15260.75,8553.94
1389509.2009,2712.01,15897.09,37256.77,38886.93,26540.52,29223.87,15395.74,8524.7
1389509.2029,3103.45,15906.15,37228.97,38823.56,26511.77,29245.67,15532.54,8499.58
1389509.2049,3081.61,15908.24,37210.99,38784.17,26500.99,29234.6,15598.2,8491.28
1389509.2069,2658.08,15944.58,37207.18,38802.06,26499.32,29191.16,15556.19,8492.85
1389509.2089,1856.52,15933.23,37225.25,38852.98,26521.83,29127.84,15372.28,8516.93
1389509.2109,1415.78,15931.13,37261.01,38921.5,26561.26,29119.5,15224.32,8551.69
1389509.2129,1523.92,15932.51,37272.51,38933.19,26572.28,29132.7,15174.44,8562.76
1389509.2149,2016.97,15918.78,37255.39,38896.76,26551.92,29163.51,15226.89,8532.72
1389509.2169,2521.52,15896.47,37236.27,38863.57,26529.84,29205.71,15345.86,8497.86
1389509.2189,3037.88,15916.21,37231.31,38844.97,26519.35,29244.95,15514.52,8480.07
1389509.2209,3142.5,15938.14,37236.69,38847.74,26527.36,29258.97,15628.86,8491.8
1389509.2229,2894.45,15963.84,37219.39,38848.93,26513.06,29226.93,15619.61,8490.85
1389509.2249,2093.51,15923.22,37173.32,38823.9,26476.34,29130.18,15424.16,8473.44
1389509.2269,1421.64,15839.15,37128.41,38795.67,26438.62,29032.38,15175.82,8451.75
1389509.2289,1303.82,15819.36,37141.61,38817.55,26450.68,29025.84,15061.67,8460.81
1389509.2309,1781.32,15853.22,37174.99,38852.31,26475.34,29086.64,15132.0,8475.69
1389509.2329,2297.69,15866.42,37192.78,38867.14,26483.63,29148.15,15269.71,8475.4
1389509.2349,2886.53,15895.37,37208.47,38861.8,26485.54,29223.06,15454.06,8480.12
1389509.2369,3109.6,15896.94,37190.97,38805.2,26460.94,29236.18,15570.12,8467.06
1389509.2389,2995.78,15906.15,37164.07,38765.24,26431.99,29224.59,15601.68,8450.51
1389509.2409,2362.78,15919.83,37159.88,38779.88,26430.37,29178.05,15489.68,8450.65
1389509.2429,1623.92,15890.74,37174.32,38820.51,26446.11,29116.25,15287.4,8463.53
1389509.2449,1311.02,15872.15,37190.35,38855.7,26461.03,29093.51,15149.64,8475.59
1389509.2469,1614.0,15863.61,37190.73,38847.64,26456.07,29096.89,15138.77,8469.01
1389509.2489,2108.29,15862.13,37186.05,38822.99,26455.6,29133.66,15231.9,8466.91
1389509.2509,2677.92,15863.8,37184.67,38798.0,26451.35,29181.44,15364.93,8458.76
1389509.2529,3053.9,15876.96,37167.79,38761.67,26425.17,29220.2,15504.79,8426.95
1389509.2549,3072.26,15900.47,37173.8,38764.96,26422.36,29251.48,15590.38,8424.71
1389509.2572,2638.29,15934.71,37169.13,38790.95,26418.59,29203.08,15541.03,8428.72
1389509.2592,1830.86,15903.52,37162.59,38821.65,26417.45,29095.51,15336.94,8434.15
1389509.2612,1345.83,15874.29,37168.94,38850.5,26427.56,29050.35,15155.41,8439.54
1389509.2632,1450.35,15862.75,37170.13,38851.69,26435.09,29072.0,15095.09,8444.88
1389509.2652,1923.9,15841.87,37146.53,38803.44,26412.16,29086.02,15157.18,8428.53
1389509.2672,2423.53,15806.63,37123.11,38758.09,26384.79,29108.43,15272.43,8399.87
1389509.2692,2939.13,15828.52,37117.49,38736.11,26372.39,29164.13,15440.66,8379.89
1389509.2712,3078.22,15866.81,37139.32,38754.13,26387.41,29218.2,15574.36,8380.13
1389509.2732,2862.02,15921.26,37151.25,38794.76,26393.42,29217.53,15591.29,8372.93
1389509.2752,2066.28,15879.73,37118.44,38791.09,26356.65,29113.01,15392.93,8364.39
1389509.2772,1427.13,15843.11,37121.01,38816.89,26362.47,29035.14,15179.25,8403.59
1389509.2792,1340.58,15860.08,37179.71,38879.64,26416.35,29061.85,15104.1,8470.06
1389509.2812,1791.0,15869.52,37182.67,38862.61,26410.34,29101.09,15146.21,8459.86
1389509.2832,2259.21,15826.04,37149.1,38796.52,26371.2,29124.07,15240.91,8403.25
1389509.2852,2854.59,15859.37,37159.73,38786.08,26377.97,29200.13,15424.83,8406.07
1389509.2872,3082.9,15869.95,37147.19,38760.81,26372.82,29233.27,15552.05,8397.68
1389509.2889,2979.57,15884.78,37119.25,38735.92,26349.98,29208.0,15582.09,8379.32
1389509.2909,2343.32,15895.18,37111.33,38743.45,26349.69,29149.35,15473.99,8382.75
1389509.2929,1602.65,15862.94,37112.19,38779.88,26350.31,29089.03,15263.7,8383.56
1389509.2949,1291.23,15864.52,37164.17,38853.6,26401.38,29099.61,15143.4,8440.21
1389509.2969,1672.74,15928.41,37224.73,38913.35,26456.17,29157.07,15181.26,8490.85
1389509.2989,2157.45,15920.78,37226.68,38892.66,26453.31,29193.17,15277.86,8470.25
1389509.3009,2715.87,15899.33,37192.16,38837.96,26416.26,29207.09,15407.13,8424.43
1389509.3029,3021.05,15848.35,37109.24,38744.36,26332.81,29182.82,15496.21,8352.19
1389509.3049,3012.28,15829.42,37059.26,38692.15,26278.07,29141.33,15540.6,8312.8
1389509.3069,2561.19,15861.94,37063.75,38710.79,26281.31,29095.27,15498.93,8321.67
1389509.3089,1802.83,15854.55,37076.19,38745.41,26294.47,29050.97,15310.58,8337.83
1389509.3109,1288.6,15828.8,37109.24,38791.47,26324.9,29041.44,15130.76,8374.5
1389509.3129,1451.92,15854.89,37149.96,38828.76,26358.42,29080.06,15099.19,8416.46
1389509.3149,1924.51,15857.41,37158.06,38816.98,26366.14,29113.68,15181.97,8420.13
1389509.3169,2460.86,15831.14,37128.45,38769.2,26339.25,29131.75,15298.08,8381.61
1389509.3189,2923.35,15825.75,37102.51,38723.14,26311.5,29156.35,15441.47,8345.08
1389509.3209,3065.78,15842.34,37092.12,38709.07,26302.25,29179.0,15551.57,8326.48
1389509.3229,2800.75,15873.34,37089.3,38716.03,26295.86,29169.04,15564.01,8321.57
1389509.3249,2100.09,15892.22,37111.1,38760.52,26313.4,29133.85,15432.74,8347.89
1389509.3269,1452.11,15885.26,37154.44,38823.94,26355.08,29107.86,15251.88,8397.1
1389509.3289,1353.5,15870.05,37166.5,38846.59,26369.0,29087.83,15119.7,8408.45
1389509.3309,1752.85,15864.71,37157.11,38827.66,26355.41,29102.71,15145.16,8390.14
1389509.3329,2270.03,15848.3,37150.15,38807.83,26329.19,29133.61,15269.38,8352.57
1389509.3349,2810.0,15847.35,37130.17,38771.92,26299.81,29177.24,15419.68,8330.16
1389509.3369,3110.31,15897.56,37150.48,38786.13,26324.99,29254.82,15578.03,8370.31
1389509.3389,3030.59,15953.88,37170.8,38800.15,26356.8,29284.72,15651.66,8398.72
1389509.3409,2387.57,15923.88,37113.34,38757.38,26311.31,29180.96,15496.4,8351.9
1389509.3429,1579.9,15852.83,37074.67,38740.64,26282.74,29066.04,15247.44,8324.53
1389509.3449,1263.43,15828.42,37101.42,38785.37,26308.59,29041.72,15104.3,8340.65
1389509.3469,1580.76,15861.42,37142.57,38827.19,26338.15,29084.83,15123.51,8371.45
1389509.3489,2104.52,15871.57,37166.93,38822.32,26345.54,29140.14,15240.58,8393.24
1389509.3509,2686.93,15889.79,37176.52,38801.2,26342.16,29200.51,15404.46,8394.19
1389509.3529,3059.58,15882.21,37139.66,38738.68,26303.63,29217.39,15525.77,8353.52
1389509.3549,3054.09,15878.63,37102.94,38699.11,26274.97,29219.34,15578.51,8322.76
1389509.3569,2608.25,15884.26,37081.63,38701.01,26260.33,29164.6,15510.7,8308.79
1389509.3589,1830.2,15874.91,37090.12,38743.5,26270.58,29094.89,15328.74,8325.63
1389509.3609,1308.58,15840.63,37102.7,38779.74,26283.79,29045.3,15143.16,8334.3
1389509.3629,1416.64,15842.68,37117.53,38796.81,26294.43,29060.75,15075.83,8335.64
1389509.3649,1906.82,15849.93,37135.08,38795.62,26304.63,29125.36,15156.94,8340.31
1389509.3669,2454.95,15853.88,37139.56,38780.17,26299.19,29143.0,15293.98,8319.9
1389509.3689,2969.22,15881.78,37151.63,38773.35,26304.87,29173.43,15466.26,8305.93
1389509.3709,3123.86,15912.2,37147.34,38758.71,26303.53,29193.93,15587.71,8311.65
1389509.3729,2826.5,15898.66,37097.79,38727.48,26258.38,29144.43,15553.19,8288.05
1389509.3749,2093.89,15894.22,37086.78,38751.65,26253.94,29085.12,15399.65,8289.91
1389509.3769,1448.11,15875.39,37121.54,38800.43,26292.71,29064.66,15214.87,8340.36
1389509.3789,1357.17,15876.77,37147.72,38818.51,26311.59,29071.91,15112.45,8367.3
1389509.3809,1747.47,15862.85,37138.94,38787.13,26292.47,29094.03,15137.34,8354.86
1389509.3829,2298.4,15876.2,37160.31,38780.98,26304.77,29167.56,15284.73,8364.87
1389509.3849,2833.89,15865.23,37144.38,38745.31,26284.98,29203.23,15435.65,8338.79
1389509.3869,3097.92,15864.18,37110.86,38710.17,26252.75,29207.57,15540.32,8297.73
1389509.3889,2997.83,15904.62,37116.44,38728.96,26267.34,29219.92,15601.88,8290.91
1389509.3909,2404.64,15913.06,37092.59,38725.81,26259.76,29153.78,15488.34,8277.46
1389509.3929,1596.59,15847.64,37064.51,38719.13,26248.17,29071.0,15249.92,8276.61
1389509.3949,1273.78,15816.98,37071.14,38747.41,26261.14,29033.38,15085.27,8302.78
1389509.3969,1543.19,15825.13,37086.92,38761.67,26275.35,29059.22,15073.11,8317.33
1389509.3989,2066.14,15824.27,37083.49,38738.88,26266.86,29105.81,15175.11,8301.64
1389509.4009,2605.25,15812.68,37072.57,38697.39,26248.89,29159.6,15319.02,8281.95
1389509.4029,3015.18,15819.93,37045.39,38655.0,26212.41,29188.45,15473.32,8246.85
1389509.4049,3007.08,15830.9,37036.66,38643.98,26200.87,29188.68,15561.01,8226.59
1389509.4069,2647.88,15903.19,37068.56,38698.82,26230.39,29169.37,15549.47,8254.53
1389509.4089,1881.27,15927.41,37115.96,38768.73,26282.36,29148.92,15382.15,8315.04
1389509.4109,1346.73,15864.37,37093.64,38770.87,26265.53,29065.99,15164.19,8304.74
1389509.4129,1360.46,15806.96,37061.27,38744.26,26231.1,29013.97,15059.04,8265.31
1389509.4149,1841.93,15783.26,37041.95,38703.59,26201.49,29039.62,15109.25,8232.74
1389509.4169,2354.91,15764.67,37032.99,38663.77,26179.46,29089.84,15228.56,8213.57
1389509.4189,2882.81,15774.11,37015.25,38629.92,26155.09,29132.27,15384.25,8184.72
1389509.4209,2981.52,15770.87,36991.03,38596.97,26135.4,29134.47,15480.71,8166.22
1389509.4229,2770.0,15806.2,36988.22,38607.08,26136.45,29109.43,15489.72,8176.8
1389509.4249,2016.54,15799.57,36972.81,38619.24,26133.45,29032.62,15331.27,8184.39
1389509.4269,1366.76,15765.53,36982.11,38647.27,26148.04,28990.94,15136.39,8191.78
1389509.4289,1224.8,15762.09,37008.43,38684.85,26174.69,29003.81,15034.25,8199.26
1389509.4309,1666.93,15772.34,37025.41,38689.95,26186.04,29054.65,15079.31,8212.38
1389509.4329,2146.1,15735.82,36999.75,38641.03,26156.33,29059.41,15167.38,8182.0
1389509.4349,2663.28,15688.95,36937.15,38555.48,26087.1,29041.77,15266.61,8112.43
1389509.4369,2879.29,15660.96,36875.87,38483.0,26016.86,29029.42,15366.7,8045.82
1389509.4389,2798.56,15688.95,36873.3,38492.21,26014.33,29037.62,15414.53,8045.77
1389509.4409,2228.64,15730.76,36893.66,38535.31,26043.51,29012.54,15334.42,8078.43
1389509.4429,1442.15,15669.63,36867.62,38528.88,26030.21,28929.28,15103.68,8064.84
