TimeStamp,P3,P4,F3,F4,FP1,I1,I2,FP2
1389708.177,5038.5,15172.53,35591.65,35937.93,25344.61,29283.62,14788.15,8350.66
1389708.179,5166.44,15251.11,35555.18,35882.43,25310.57,29283.0,14908.36,8325.67
1389708.181,4630.42,15259.74,35526.09,35864.83,25300.79,29237.8,14889.05,8317.23
1389708.183,3308.92,15136.01,35526.9,35886.24,25335.46,29157.36,14658.88,8348.75
1389708.185,2270.51,14971.21,35564.0,35945.94,25397.59,29109.96,14399.91,8406.07
1389708.187,2103.23,14860.11,35595.71,35985.66,25433.83,29108.58,14250.18,8440.26
1389708.189,2885.68,14876.75,35606.1,35989.43,25428.97,29152.87,14302.54,8435.44
1389708.191,3824.62,14969.83,35615.5,35973.93,25412.61,29220.54,14470.87,8414.13
1389708.193,4832.32,15129.0,35611.78,35950.24,25376.85,29286.53,14700.22,8378.84
1389708.195,5197.48,15234.57,35571.25,35893.49,25326.06,29298.02,14877.56,8332.06
1389708.197,4937.08,15280.44,35549.93,35866.69,25306.51,29281.76,14927.29,8308.41
1389708.199,3814.51,15223.7,35550.79,35889.3,25333.46,29214.77,14782.48,8336.5
1389708.201,2562.62,15043.83,35558.75,35918.05,25377.09,29132.51,14492.8,8381.75
1389708.203,2028.51,14883.38,35576.4,35952.29,25418.9,29098.42,14265.35,8420.18
1389708.205,2581.88,14871.22,35613.06,35992.67,25442.41,29138.76,14264.92,8447.51
1389708.207,3490.5,14939.07,35616.4,35988.19,25420.53,29188.54,14405.16,8429.67
1389708.209,4519.84,15071.49,35607.39,35976.32,25378.37,29255.06,14627.36,8388.9
1389708.211,5142.16,15208.34,35580.07,35935.36,25326.64,29294.35,14840.56,8342.22
1389708.213,5098.53,15273.76,35549.55,35896.93,25296.93,29289.2,14928.72,8313.85
1389708.215,4238.84,15239.19,35518.75,35864.5,25288.25,29212.1,14823.49,8306.79
1389708.217,2903.41,15087.42,35528.14,35883.96,25333.6,29124.64,14560.46,8348.42
1389708.219,2089.26,14928.01,35562.57,35936.17,25400.31,29097.89,14316.94,8407.59
1389708.221,2308.75,14862.25,35594.23,35976.27,25437.5,29122.36,14236.4,8438.25
1389708.223,3184.41,14910.65,35606.87,35977.94,25433.78,29180.58,14340.35,8430.48
1389708.225,4175.95,15016.8,35606.34,35962.82,25406.84,29238.42,14536.43,8403.02
1389708.227,5026.34,15159.99,35577.25,35925.87,25355.34,29277.71,14774.28,8354.0
1389708.229,5180.26,15246.82,35545.02,35889.34,25322.01,29288.39,14923.0,8318.85
1389708.231,4642.77,15270.14,35523.75,35877.76,25314.14,29258.02,14922.05,8317.61
1389708.233,3341.48,15144.06,35513.69,35881.71,25332.36,29175.09,14695.93,8340.41
1389708.235,2275.75,14970.97,35548.12,35929.4,25388.53,29127.27,14412.79,8393.77
1389708.237,2111.15,14857.58,35591.42,35969.64,25429.2,29135.37,14249.14,8434.3
1389708.239,2870.8,14881.33,35614.02,35979.56,25426.77,29176.33,14308.74,8430.86
1389708.241,3810.84,14967.63,35613.73,35965.45,25398.64,29213.38,14478.54,8405.4
1389708.243,4805.28,15121.51,35597.47,35937.03,25352.39,29283.19,14724.16,8363.77
1389708.245,5197.95,15230.37,35565.91,35898.02,25309.71,29309.99,14893.34,8321.76
1389708.247,4941.65,15277.05,35540.97,35879.43,25291.11,29289.77,14931.49,8297.25
1389708.249,3827.29,15210.92,35534.05,35878.33,25309.14,29213.62,14775.47,8306.79
1389708.251,2573.82,15044.36,35550.36,35908.37,25354.72,29132.04,14492.42,8351.76
1389708.253,2044.25,14898.73,35589.17,35968.83,25409.32,29115.68,14279.51,8396.1
1389708.255,2592.37,14888.91,35622.89,36009.94,25426.82,29153.06,14266.16,8407.36
1389708.257,3483.68,14940.98,35626.22,35987.52,25396.3,29203.94,14388.61,8394.77
1389708.259,4515.93,15072.01,35608.96,35960.25,25357.3,29265.65,14607.96,8376.46
1389708.261,5138.49,15209.01,35570.77,35925.44,25319.96,29305.13,14826.25,8342.08
1389708.263,5106.55,15273.29,35529.14,35889.44,25293.97,29291.39,14917.33,8305.69
1389708.265,4248.62,15238.33,35508.11,35877.28,25295.26,29232.08,14830.45,8301.59
1389708.267,2925.63,15091.66,35519.41,35900.84,25343.33,29148.06,14565.66,8344.37
1389708.269,2069.43,14914.32,35555.8,35935.74,25407.03,29094.75,14300.11,8403.25
1389708.271,2298.07,14862.54,35592.7,35967.31,25441.32,29116.3,14227.63,8442.93
1389708.273,3158.86,14912.94,35608.15,35964.21,25432.26,29174.57,14345.89,8443.45
1389708.275,4166.6,15028.67,35607.96,35947.61,25396.06,29235.18,14548.11,8414.41
1389708.277,5001.4,15175.77,35592.66,35915.47,25354.53,29279.76,14776.52,8372.88
1389708.279,5186.37,15260.41,35552.7,35876.09,25313.81,29274.75,14905.84,8324.34
1389708.281,4638.1,15271.09,35524.09,35867.41,25305.37,29233.17,14890.39,8310.13
1389708.283,3371.29,15155.03,35519.56,35883.96,25333.84,29158.79,14671.57,8335.59
1389708.285,2265.98,14968.54,35544.35,35925.01,25387.1,29107.19,14391.81,8387.19
1389708.287,2129.32,14874.03,35593.18,35983.04,25438.22,29120.16,14248.33,8441.12
1389708.289,2871.08,14897.63,35623.22,36000.92,25450.42,29182.34,14316.47,8456.28
1389708.291,3838.06,14985.99,35616.59,35975.32,25418.0,29235.84,14485.79,8426.24
1389708.293,4789.5,15127.09,35599.95,35939.65,25371.75,29290.77,14714.72,8379.51
1389708.295,5211.35,15240.15,35566.86,35899.36,25326.97,29307.32,14867.98,8335.73
1389708.297,4919.2,15268.04,35530.71,35868.17,25294.45,29264.98,14907.79,8302.4
1389708.299,3832.96,15199.33,35516.17,35876.8,25302.03,29180.24,14755.92,8310.61
1389708.301,2540.25,15021.47,35527.76,35913.76,25344.76,29102.52,14464.19,8352.42
1389708.303,2026.37,14872.17,35558.04,35944.28,25385.57,29080.63,14245.61,8392.48
1389708.305,2531.15,14857.34,35593.04,35972.31,25402.5,29130.7,14246.51,8399.82
1389708.307,3487.87,14946.7,35619.84,35984.95,25394.68,29212.48,14410.45,8389.81
1389708.309,4504.97,15084.27,35625.08,35964.68,25366.98,29281.62,14631.7,8368.64
1389708.311,5173.16,15223.55,35608.39,35928.64,25338.65,29310.18,14836.93,8349.8
1389708.313,5116.42,15280.39,35565.81,35889.53,25311.52,29298.31,14918.71,8328.58
1389708.315,4304.31,15251.11,35529.33,35873.89,25301.13,29232.55,14831.59,8318.76
1389708.317,2938.8,15092.04,35517.41,35880.86,25332.88,29137.57,14562.47,8340.31
1389708.319,2095.37,14916.09,35543.97,35915.52,25384.48,29096.8,14306.5,8380.99
1389708.321,2284.96,14863.21,35586.03,35963.73,25423.34,29128.51,14230.63,8413.46
1389708.323,3170.87,14908.03,35599.19,35967.02,25419.38,29188.59,14339.21,8408.64
1389708.325,4147.24,15019.37,35595.99,35951.14,25392.25,29249.96,14539.15,8386.95
1389708.327,5009.17,15160.71,35571.05,35908.99,25345.23,29289.2,14771.65,8348.37
1389708.329,5192.38,15255.5,35539.06,35878.95,25312.09,29294.69,14919.62,8315.8
1389708.331,4680.06,15274.15,35524.04,35872.18,25303.18,29259.02,14911.13,8309.51
1389708.333,3400.85,15164.33,35524.56,35881.24,25328.4,29179.62,14703.08,8337.16
1389708.335,2300.26,14984.94,35556.65,35928.44,25381.71,29135.33,14436.39,8393.72
1389708.337,2127.5,14885.33,35607.63,35980.71,25428.01,29145.86,14281.7,8439.78
1389708.339,2868.89,14902.97,35638.43,36003.98,25438.6,29202.7,14319.23,8448.36
1389708.341,3825.95,14992.95,35636.52,36003.07,25419.19,29260.02,14481.36,8417.61
1389708.343,4792.74,15126.8,35607.49,35967.16,25372.51,29310.9,14716.91,8368.35
1389708.345,5221.99,15245.49,35570.53,35918.19,25327.88,29331.26,14910.08,8321.33
1389708.347,4944.42,15277.82,35535.72,35883.24,25299.7,29285.63,14942.7,8301.69
1389708.349,3866.15,15211.63,35524.8,35877.61,25304.32,29195.84,14776.57,8313.75
1389708.351,2577.02,15029.34,35543.49,35907.56,25349.86,29104.14,14471.68,8345.18
1389708.353,2053.07,14888.1,35579.83,35948.9,25400.36,29093.32,14244.56,8394.67
1389708.355,2542.69,14863.92,35606.67,35967.02,25420.53,29134.47,14236.17,8422.42
1389708.357,3495.93,14946.32,35619.84,35961.78,25416.9,29213.58,14401.63,8422.71
1389708.359,4489.52,15071.78,35604.72,35930.11,25385.1,29273.47,14625.6,8384.71
1389708.361,5156.33,15205.19,35565.43,35882.57,25331.55,29299.02,14833.45,8323.81
1389708.363,5101.73,15263.99,35526.09,35853.15,25302.65,29283.0,14919.04,8300.07
1389708.365,4320.05,15253.83,35509.88,35853.1,25302.65,29219.11,14848.62,8306.08
1389708.367,2948.48,15101.53,35514.84,35878.19,25339.18,29124.84,14579.63,8345.56
1389708.369,2119.16,14937.07,35554.03,35932.45,25397.16,29091.5,14330.48,8398.34
1389708.371,2270.79,14865.97,35594.18,35972.6,25435.64,29122.55,14236.4,8429.72
1389708.373,3167.68,14918.0,35608.77,35977.13,25430.44,29180.72,14337.92,8420.9
1389708.375,4130.84,15027.19,35604.53,35957.44,25399.02,29236.51,14535.67,8389.76
1389708.377,5017.42,15172.67,35581.02,35918.19,25348.14,29275.61,14761.97,8341.84
1389708.379,5173.25,15250.21,35542.97,35872.61,25305.94,29276.99,14895.15,8305.22
1389708.381,4702.28,15278.63,35523.8,35861.07,25296.88,29249.15,14908.7,8303.98
1389708.383,3396.85,15163.09,35518.08,35866.07,25323.78,29167.37,14695.46,8330.25
1389708.385,2311.23,14986.8,35542.44,35907.46,25372.22,29108.53,14409.83,8379.17
1389708.387,2097.23,14877.75,35591.03,35963.11,25418.71,29108.34,14238.41,8427.72
1389708.389,2863.79,14906.93,35628.47,36000.3,25429.06,29170.9,14304.07,8441.74
1389708.391,3799.87,14996.1,35634.81,35997.63,25413.23,29237.18,14491.13,8419.99
1389708.393,4803.61,15140.25,35617.88,35969.5,25373.56,29292.73,14716.91,8376.46
1389708.395,5203.39,15248.49,35581.55,35922.15,25325.02,29306.03,14872.89,8324.77
1389708.397,4971.7,15289.21,35552.94,35899.6,25301.6,29280.43,14919.0,8302.02
1389708.399,3873.11,15222.65,35539.82,35893.35,25311.47,29207.85,14777.76,8314.42
1389708.401,2608.39,15048.65,35554.79,35908.27,25353.63,29137.9,14499.86,8362.34
1389708.403,2044.49,14903.26,35590.99,35952.24,25410.46,29116.54,14278.7,8416.84
1389708.405,2550.89,14881.23,35625.27,35988.29,25438.84,29146.53,14262.58,8443.55
1389708.407,3463.17,14950.37,35624.22,35975.13,25426.53,29206.42,14414.07,8425.81
1389708.409,4489.61,15078.5,35607.91,35949.66,25393.3,29265.6,14638.0,8391.29
1389708.411,5150.6,15217.45,35578.21,35909.9,25349.24,29294.92,14836.6,8346.8
1389708.413,5144.98,15284.92,35554.65,35886.86,25319.2,29293.35,14929.3,8317.28
1389708.415,4332.21,15251.3,35524.66,35872.13,25302.89,29228.93,14844.71,8302.74
1389708.417,2980.14,15084.7,35517.65,35884.34,25323.16,29140.71,14569.76,8321.24
1389708.419,2113.96,14920.86,35552.89,35928.64,25375.99,29106.81,14316.51,8379.51
1389708.421,2274.04,14855.34,35594.42,35971.46,25414.66,29118.59,14225.77,8426.1
1389708.423,3151.27,14916.23,35611.73,35988.96,25423.1,29181.29,14339.54,8432.82
1389708.425,4135.94,15026.14,35610.35,35977.99,25401.17,29246.57,14535.14,8403.68
1389708.427,5014.23,15175.77,35587.79,35944.37,25357.2,29291.82,14776.37,8355.19
1389708.429,5205.82,15268.76,35561.57,35909.61,25327.83,29311.57,14928.3,8312.85
1389708.431,4709.63,15283.73,35533.86,35884.19,25310.42,29275.42,14915.71,8292.2
1389708.433,3422.55,15166.52,35524.61,35884.43,25331.17,29178.1,14686.06,8325.24
1389708.435,2325.01,14997.58,35553.75,35923.25,25388.34,29095.13,14403.3,8394.77
1389708.437,2092.84,14876.51,35588.17,35953.48,25424.29,29097.8,14232.4,8432.68
1389708.439,2836.85,14901.26,35617.55,35971.07,25433.5,29163.13,14289.09,8438.06
1389708.441,3773.02,14978.32,35616.69,35958.29,25409.75,29217.06,14457.32,8413.6
1389708.443,4773.81,15119.22,35600.14,35927.01,25367.31,29256.92,14695.03,8376.79
1389708.445,5191.76,15232.33,35570.01,35888.1,25319.53,29275.61,14876.13,8331.25
1389708.447,4973.7,15281.73,35542.64,35865.74,25292.92,29258.92,14917.9,8310.13
1389708.449,3894.0,15214.78,35532.38,35867.08,25303.75,29186.73,14767.12,8327.87
1389708.451,2624.7,15050.17,35552.55,35908.32,25352.19,29113.2,14489.08,8367.97
1389708.453,2043.39,14898.4,35592.51,35964.64,25414.57,29095.37,14264.49,8417.27
1389708.455,2556.71,14890.15,35627.18,36008.03,25440.79,29142.76,14262.44,8435.06
1389708.457,3447.44,14950.04,35625.46,35997.35,25418.57,29194.17,14398.1,8404.69
1389708.459,4475.4,15074.87,35603.81,35961.2,25372.46,29244.04,14611.39,8364.49
1389708.461,5127.57,15202.71,35572.53,35913.14,25325.35,29273.51,14811.61,8328.11
1389708.463,5134.06,15277.34,35548.5,35878.23,25301.51,29269.27,14908.6,8307.84
1389708.465,4332.16,15258.03,35531.72,35864.55,25311.38,29215.53,14834.17,8306.55
1389708.467,3015.85,15118.51,35539.3,35888.15,25350.57,29146.15,14584.83,8345.89
1389708.469,2118.64,14943.79,35574.25,35945.09,25408.27,29107.14,14325.19,8404.16
1389708.471,2288.15,14878.18,35605.72,35988.76,25437.5,29120.5,14230.01,8440.3
1389708.473,3139.54,14927.58,35624.51,35996.63,25436.55,29183.92,14334.01,8445.26
1389708.475,4142.43,15037.73,35615.88,35974.94,25409.03,29246.14,14536.72,8413.74
1389708.477,4995.68,15169.81,35583.93,35918.19,25359.54,29290.16,14769.46,8360.29
1389708.479,5221.27,15264.89,35548.79,35870.46,25311.66,29301.55,14919.09,8316.04
1389708.481,4707.43,15275.38,35524.37,35855.25,25288.92,29260.5,14906.22,8296.54
1389708.483,3454.64,15164.66,35523.61,35876.23,25313.67,29160.36,14685.58,8316.95
1389708.485,2320.19,14983.56,35559.28,35918.57,25371.84,29099.85,14413.55,8372.5
1389708.487,2126.26,14883.76,35610.78,35976.41,25430.21,29112.34,14259.24,8431.86
1389708.489,2826.12,14898.16,35631.57,35993.39,25443.08,29170.28,14295.01,8445.07
1389708.491,3787.47,14985.94,35632.28,35976.22,25421.43,29220.78,14453.22,8431.01
1389708.493,4752.78,15116.88,35608.25,35941.13,25371.6,29268.55,14679.05,8388.47
1389708.495,5214.98,15230.71,35569.39,35904.7,25321.49,29291.06,14865.02,8333.25
1389708.497,4964.07,15278.67,35544.83,35895.83,25305.23,29271.75,14914.28,8292.1
1389708.499,3920.27,15216.78,35536.82,35887.91,25315.38,29190.59,14766.74,8291.58
1389708.501,2610.4,15035.01,35549.79,35905.41,25356.92,29109.34,14471.34,8334.3
1389708.503,2047.54,14888.0,35586.89,35946.52,25407.6,29088.07,14255.19,8399.39
1389708.505,2500.49,14862.06,35612.54,35968.5,25433.59,29124.12,14227.82,8428.86
1389708.507,3434.13,14931.68,35618.74,35965.69,25423.01,29185.82,14369.49,8414.36
1389708.509,4437.73,15062.38,35608.73,35946.04,25389.58,29247.29,14591.65,8376.93
1389708.511,5136.92,15200.66,35576.87,35908.75,25341.99,29280.05,14813.23,8333.11
1389708.513,5123.81,15274.19,35542.68,35874.66,25315.96,29275.56,14928.77,8317.33
1389708.515,4351.28,15258.5,35526.95,35866.07,25314.29,29220.39,14858.92,8319.95
1389708.517,2997.4,15106.06,35532.91,35888.82,25346.9,29141.52,14602.47,8344.27
1389708.519,2125.31,14929.92,35566.95,35942.03,25403.07,29098.8,14326.38,8377.51
1389708.521,2253.82,14860.01,35602.38,35976.32,25440.74,29110.86,14203.22,8408.93
1389708.523,3119.18,14908.03,35627.32,35987.33,25444.51,29166.89,14287.9,8430.63
1389708.525,4106.43,15020.75,35625.03,35974.98,25416.81,29233.89,14489.99,8419.28
1389708.527,4991.63,15164.62,35597.76,35931.5,25365.69,29280.19,14731.31,8376.31
1389708.529,5199.96,15256.88,35556.7,35885.72,25324.97,29277.47,14876.65,8333.02
1389708.531,4709.58,15261.46,35526.47,35862.97,25303.03,29234.84,14868.45,8313.61
1389708.533,3450.3,15152.46,35518.46,35866.5,25326.83,29164.84,14675.91,8334.45
1389708.535,2321.58,14971.78,35548.41,35908.56,25379.61,29116.59,14411.26,8391.81
1389708.537,2087.35,14857.72,35588.41,35950.66,25418.67,29122.64,14252.33,8426.62
1389708.539,2803.47,14873.17,35621.65,35978.32,25432.16,29161.08,14294.2,8425.24
1389708.541,3757.48,14960.24,35617.07,35969.17,25404.98,29210.9,14454.22,8398.96
1389708.543,4744.05,15103.01,35604.53,35946.33,25371.27,29282.29,14695.07,8369.83
1389708.545,5224.66,15233.71,35581.16,35916.62,25336.36,29317.19,14883.81,8339.84
1389708.547,4981.38,15269.47,35549.22,35880.28,25306.51,29291.92,14936.64,8320.09
1389708.549,3936.96,15215.83,35533.34,35867.03,25307.09,29207.81,14805.99,8318.57
1389708.551,2628.61,15039.73,35552.08,35890.15,25350.38,29141.81,14523.84,8359.43
1389708.553,2068.57,14900.5,35590.37,35946.42,25400.55,29126.12,14307.88,8405.83
1389708.555,2505.87,14867.83,35617.5,35981.42,25422.58,29147.39,14252.57,8427.24
1389708.557,3438.62,14942.22,35621.93,35979.32,25419.29,29199.41,14400.15,8425.28
1389708.559,4428.67,15067.48,35614.07,35962.44,25399.35,29257.73,14618.92,8404.45
1389708.561,5146.69,15209.25,35586.74,35917.57,25354.1,29287.29,14835.69,8364.54
1389708.563,5119.66,15270.14,35546.4,35879.52,25320.1,29273.66,14920.95,8332.59
1389708.565,4369.5,15259.32,35516.7,35878.66,25312.52,29210.71,14843.75,8320.0
1389708.567,3000.83,15107.59,35517.46,35901.46,25346.71,29122.5,14571.24,8335.5
1389708.569,2123.55,14928.34,35545.26,35943.13,25393.16,29079.01,14303.97,8384.99
1389708.571,2224.78,14850.86,35582.79,35978.61,25426.96,29104.57,14205.36,8433.39
1389708.573,3119.61,14910.84,35604.91,35985.62,25429.87,29162.08,14315.08,8447.22
1389708.575,4072.24,15010.41,35601.14,35963.25,25404.12,29213.34,14508.25,8417.37
1389708.577,4977.27,15150.83,35572.91,35919.48,25358.58,29259.26,14746.24,8376.79
1389708.579,5174.54,15237.14,35538.53,35880.76,25322.77,29273.42,14892.91,8342.51
1389708.581,4735.04,15268.09,35518.51,35875.13,25307.18,29240.04,14904.07,8322.57
1389708.583,3454.02,15164.81,35517.17,35895.54,25332.79,29161.79,14709.05,8350.85
1389708.585,2346.18,14985.99,35548.36,35937.36,25391.49,29110.2,14436.58,8404.02
1389708.587,2069.09,14860.54,35586.03,35984.81,25433.35,29108.29,14250.23,8440.16
1389708.589,2796.94,14872.93,35615.07,36018.47,25446.8,29160.55,14277.27,8463.81
1389708.591,3717.71,14954.62,35613.21,36011.51,25429.63,29211.43,14438.68,8446.03
1389708.593,4733.13,15099.0,35598.23,35991.96,25387.58,29275.85,14679.86,8399.01
1389708.595,5184.56,15224.6,35566.81,35952.67,25341.8,29298.26,14873.94,8361.96
1389708.597,5000.4,15287.4,35543.35,35915.67,25324.87,29286.77,14950.47,8357.62
1389708.599,3939.06,15229.37,35523.56,35896.69,25328.88,29214.34,14811.66,8369.97
1389708.601,2651.93,15049.51,35530.48,35914.76,25361.54,29130.37,14514.21,8409.45
1389708.603,2034.33,14892.25,35560.66,35954.96,25408.6,29084.83,14279.03,8457.09
1389708.605,2483.23,14854.81,35582.55,35975.32,25430.25,29116.82,14247.94,8472.01
1389708.607,3395.32,14929.96,35587.41,35965.73,25418.09,29184.73,14404.82,8461.33
1389708.609,4420.76,15062.91,35578.3,35943.94,25385.1,29244.71,14635.56,8424.9
1389708.611,5119.47,15212.35,35556.03,35919.1,25345.71,29289.15,14863.06,8382.51
1389708.613,5125.9,15268.38,35511.55,35878.09,25301.65,29263.31,14932.06,8339.36
1389708.615,4360.1,15244.82,35476.16,35860.83,25290.02,29196.12,14835.88,8322.29
1389708.617,3009.32,15086.7,35476.4,35885.91,25321.06,29119.88,14559.89,8337.93
1389708.619,2109.67,14921.24,35512.36,35949.38,25368.98,29080.16,14311.79,8385.47
1389708.621,2219.2,14848.81,35557.42,36012.42,25398.78,29095.7,14218.33,8423.0
1389708.623,3083.66,14898.35,35582.07,36045.79,25397.11,29171.76,14319.99,8411.89
1389708.625,4064.51,15005.73,35588.65,36072.69,25376.13,29243.04,14511.87,8381.27
1389708.627,4966.45,15153.7,35568.77,36018.66,25336.94,29277.19,14735.41,8366.01
1389708.629,5193.23,15254.17,35538.73,35940.94,25312.57,29271.56,14900.26,8368.73
1389708.631,4743.29,15281.87,35506.3,35888.58,25298.84,29218.1,14908.12,8362.53
1389708.633,3473.71,15170.62,35492.23,35873.61,25317.96,29143.96,14700.61,8385.52
1389708.635,2334.12,14988.28,35509.73,35910.32,25366.21,29074.2,14417.84,8430.67
1389708.637,2052.26,14856.96,35550.5,35962.63,25415.14,29071.14,14238.65,8475.21
1389708.639,2776.96,14874.27,35580.4,35980.56,25428.25,29132.8,14286.33,8488.13
1389708.641,3701.26,14947.99,35576.87,35960.58,25399.16,29197.12,14449.31,8461.24
1389708.643,4706.67,15083.84,35548.83,35926.2,25348.19,29249.72,14678.19,8403.68
1389708.645,5159.52,15201.57,35517.98,35893.02,25308.95,29269.36,14863.64,8356.0
1389708.647,4969.98,15257.17,35485.32,35867.74,25279.57,29245.28,14925.91,8319.71
1389708.649,3925.51,15204.57,35478.74,35884.67,25291.49,29181.05,14795.07,8333.49
1389708.651,2651.93,15041.78,35501.01,35930.92,25342.85,29117.3,14523.13,8405.54
1389708.653,2012.4,14872.84,35530.14,35970.02,25390.53,29084.83,14278.99,8458.76
1389708.655,2472.69,14845.52,35563.09,35993.25,25410.32,29117.21,14241.74,8473.97
1389708.6572,3376.63,14910.99,35575.49,35985.09,25401.4,29189.45,14382.03,8461.14
1389708.6592,4406.36,15046.5,35561.52,35962.97,25360.49,29253.77,14606.24,8417.99
1389708.6612,5088.62,15184.26,35526.18,35927.82,25300.74,29285.72,14817.57,8362.82
1389708.6632,5131.29,15266.23,35491.28,35904.94,25265.65,29264.45,14927.2,8326.29
1389708.6652,4360.15,15247.16,35465.01,35886.2,25262.55,29193.4,14860.44,8313.28
1389708.6672,3026.63,15103.63,35465.96,35899.55,25298.03,29111.06,14605.19,8348.85
1389708.6692,2079.77,14913.8,35500.58,35939.55,25353.82,29062.66,14326.38,8408.17
1389708.6712,2208.19,14837.7,35538.11,35973.74,25384.14,29072.96,14215.04,8448.08
1389708.6732,3048.94,14879.13,35559.47,35972.12,25385.19,29133.42,14312.32,8451.13
1389708.6752,4046.87,14996.34,35560.47,35965.59,25362.64,29206.33,14518.31,8430.91
1389708.6772,4927.25,15143.3,35534.05,35929.02,25315.0,29245.95,14754.58,8379.75
1389708.6792,5185.08,15247.35,35499.48,35890.35,25278.62,29249.0,14908.98,8329.63
1389708.6812,4721.4,15274.29,35474.73,35883.62,25263.84,29233.89,14914.23,8303.83
1389708.6832,3491.12,15178.01,35476.36,35908.04,25287.63,29162.36,14716.2,8337.78
1389708.6852,2302.5,14969.88,35496.14,35938.55,25334.17,29059.6,14394.48,8393.29
1389708.6872,2036.33,14839.41,35531.24,35981.23,25377.61,29057.41,14216.9,8438.54
1389708.689,2720.5,14851.43,35556.27,35999.25,25384.1,29137.14,14275.12,8450.8
1389708.691,3689.77,14944.51,35558.28,35986.95,25361.25,29190.93,14429.9,8436.3
1389708.693,4676.44,15093.28,35538.63,35965.35,25318.82,29234.79,14667.32,8392.57
1389708.695,5185.51,15236.76,35507.35,35946.28,25277.71,29263.31,14882.42,8337.36
1389708.697,4977.85,15295.89,35479.84,35922.91,25257.3,29248.15,14941.03,8313.08
1389708.699,3951.74,15232.66,35466.53,35914.33,25267.65,29165.56,14779.09,8335.16
1389708.701,2607.73,15040.45,35475.02,35926.2,25310.9,29080.44,14472.06,8388.71
1389708.703,1987.12,14865.07,35499.48,35949.43,25354.44,29075.53,14232.83,8434.96
1389708.705,2406.65,14822.77,35528.38,35969.69,25377.61,29105.81,14192.49,8455.28
1389708.707,3353.5,14907.41,35549.31,35983.38,25375.27,29181.1,14358.81,8441.64
1389708.709,4371.64,15054.75,35547.93,35992.05,25347.38,29224.92,14597.8,8403.45
1389708.711,5100.54,15205.34,35517.41,35973.98,25292.78,29234.08,14823.72,8349.56
1389708.713,5111.84,15279.15,35471.44,35927.68,25241.28,29216.67,14941.6,8312.61
1389708.715,4376.51,15269.85,35455.9,35911.04,25237.61,29176.19,14889.29,8314.32
1389708.717,3018.14,15111.78,35463.39,35904.41,25279.95,29102.0,14616.92,8361.72
1389708.719,2081.68,14906.6,35492.47,35912.57,25334.08,29047.06,14319.8,8417.75
1389708.721,2161.93,14818.86,35526.42,35945.18,25371.46,29067.09,14208.27,8451.27
1389708.723,3024.24,14862.25,35540.06,35955.48,25369.6,29135.9,14311.22,8442.36
1389708.725,4016.88,14981.56,35536.67,35946.56,25337.99,29204.32,14522.65,8411.12
1389708.727,4940.56,15147.97,35511.93,35919.24,25286.82,29265.17,14771.18,8361.2
1389708.729,5198.96,15272.33,35483.75,35891.44,25250.44,29279.14,14944.84,8314.66
1389708.731,4744.24,15295.7,35458.24,35888.63,25234.61,29232.22,14944.32,8268.98
1389708.733,3482.63,15174.44,35445.74,35898.36,25249.39,29132.8,14715.91,8279.71
1389708.735,2294.49,14962.58,35468.63,35925.2,25302.94,29071.24,14402.06,8352.09
1389708.737,1996.52,14818.91,35502.29,35967.16,25348.57,29070.19,14210.18,8421.85
1389708.739,2683.31,14813.33,35519.17,35977.08,25353.01,29127.84,14238.79,8439.83
1389708.741,3668.74,14924.58,35525.09,35967.97,25334.31,29193.31,14428.52,8417.8
1389708.743,4678.06,15089.85,35516.84,35959.87,25301.22,29235.03,14679.0,8382.7
1389708.745,5192.57,15246.82,35490.56,35929.68,25263.07,29257.83,14898.21,8342.22
1389708.747,4981.18,15297.46,35454.95,35872.8,25232.84,29232.17,14960.82,8305.55
1389708.749,3961.37,15238.76,35440.64,35857.25,25238.14,29158.79,14810.66,8294.15
1389708.751,2615.02,15045.07,35467.06,35893.64,25292.26,29096.65,14511.25,8357.29
1389708.753,1990.46,14867.83,35511.12,35943.61,25348.52,29076.15,14269.69,8429.72
1389708.755,2394.06,14818.15,35548.98,35977.08,25372.7,29104.14,14217.33,8461.48
1389708.757,3355.84,14901.59,35557.94,35983.95,25360.4,29173.23,14371.11,8445.65
1389708.759,4363.01,15040.88,35538.34,35967.97,25321.39,29236.37,14603.04,8389.57
1389708.761,5133.2,15218.97,35508.16,35958.44,25274.28,29282.29,14853.29,8317.76
1389708.763,5142.93,15304.95,35473.35,35932.35,25237.52,29269.17,14970.16,8264.16
1389708.765,4417.56,15294.27,35451.46,35903.6,25226.26,29196.12,14898.64,8255.91
1389708.767,3026.77,15119.17,35452.47,35888.82,25259.35,29116.92,14625.88,8315.99
1389708.769,2093.03,14906.55,35479.55,35923.77,25309.04,29084.26,14338.83,8385.85
1389708.771,2127.22,14795.35,35509.83,35958.34,25342.85,29093.22,14204.69,8437.25
1389708.773,3030.06,14851.76,35538.87,35966.59,25350.53,29168.08,14287.81,8453.51
1389708.775,4011.01,14980.99,35542.87,35955.81,25330.02,29212.62,14482.31,8422.42
1389708.777,4975.51,15178.97,35529.19,35934.88,25291.88,29247.0,14759.83,8376.27
1389708.779,5220.46,15307.81,35497.81,35882.57,25255.73,29267.6,14938.4,8333.45
1389708.781,4796.36,15344.05,35471.21,35853.1,25239.71,29232.31,14954.52,8313.8
1389708.783,3507.04,15214.35,35459.62,35856.39,25260.5,29153.35,14735.27,8335.88
1389708.785,2328.83,14984.08,35477.07,35892.68,25308.56,29088.21,14412.07,8382.61
1389708.787,2002.05,14829.97,35522.23,35951.28,25362.21,29106.81,14210.42,8431.2
1389708.789,2729.85,14849.86,35563.62,35998.49,25390.58,29174.47,14261.77,8452.23
1389708.791,3688.38,14955.19,35567.0,36006.03,25369.55,29201.65,14435.77,8423.23
1389708.793,4726.22,15120.56,35533.34,35966.54,25309.8,29274.66,14694.41,8350.95
1389708.795,5218.22,15278.96,35496.0,35917.72,25260.26,29289.68,14919.24,8291.87
1389708.797,5053.47,15354.35,35474.69,35890.54,25237.94,29274.61,15000.77,8278.56
1389708.799,3998.8,15287.02,35461.62,35873.51,25242.05,29186.44,14838.84,8297.4
1389708.801,2643.44,15065.05,35469.11,35890.96,25282.43,29073.72,14495.42,8340.6
1389708.803,1971.91,14864.35,35504.63,35940.37,25334.55,29051.69,14240.41,8397.68
1389708.805,2410.27,14820.01,35549.22,36000.4,25366.79,29122.98,14211.08,8429.58
1389708.807,3355.17,14902.78,35560.99,36007.36,25353.24,29178.58,14362.81,8412.7
1389708.809,4401.83,15058.57,35548.26,35983.85,25315.72,29239.13,14611.25,8374.5
1389708.811,5157.19,15247.49,35517.27,35932.59,25265.98,29287.72,14868.64,8343.6
1389708.813,5191.04,15345.77,35481.5,35880.47,25233.61,29271.89,14993.76,8322.19
1389708.815,4449.89,15337.23,35462.91,35863.93,25233.08,29230.65,14938.4,8316.71
1389708.817,3051.42,15135.39,35463.0,35870.37,25263.69,29136.95,14621.74,8335.11
1389708.819,2080.15,14896.11,35494.05,35898.88,25317.34,29087.79,14306.07,8384.37
1389708.821,2126.6,14773.7,35533.96,35937.27,25357.54,29096.99,14174.56,8424.76
1389708.823,3005.41,14827.59,35551.12,35953.19,25359.97,29147.58,14287.9,8426.62
1389708.825,4024.98,14982.85,35558.99,35955.81,25347.66,29219.68,14529.37,8412.31
1389708.827,4995.92,15197.66,35541.59,35932.07,25307.56,29267.22,14809.04,8371.78
1389708.829,5253.84,15329.08,35500.34,35891.73,25265.41,29278.57,14984.28,8326.2
1389708.831,4826.93,15366.6,35470.49,35872.94,25246.1,29247.91,14998.49,8304.74
1389708.833,3522.44,15212.73,35453.47,35865.55,25255.73,29150.44,14752.29,8312.27
1389708.835,2315.24,14966.78,35476.36,35903.41,25301.13,29090.69,14411.74,8347.27
1389708.837,1975.73,14790.82,35526.42,35959.96,25356.44,29106.43,14202.12,8394.96
1389708.839,2702.33,14802.98,35560.56,35990.43,25371.7,29180.86,14248.71,8409.45
1389708.841,3680.18,14923.0,35564.86,35983.04,25356.01,29258.78,14451.89,8399.15
1389708.843,4746.01,15131.71,35552.98,35957.01,25320.1,29298.26,14727.12,8365.68
1389708.845,5262.28,15315.11,35523.47,35909.99,25282.72,29314.33,14960.62,8325.82
1389708.847,5090.81,15392.02,35486.85,35869.79,25250.72,29265.79,15031.96,8300.93
1389708.849,4014.87,15298.8,35458.19,35855.54,25242.71,29165.32,14852.33,8303.21
1389708.851,2658.22,15062.29,35472.68,35886.58,25286.92,29095.18,14514.3,8343.17
1389708.853,1953.55,14830.5,35516.08,35947.99,25345.14,29079.63,14233.5,8384.66
1389708.855,2393.72,14781.62,35559.56,35983.9,25375.32,29134.32,14190.82,8402.49
1389708.857,3325.13,14860.87,35559.52,35973.89,25355.96,29179.86,14335.68,8386.8
1389708.859,4396.96,15036.73,35541.2,35961.82,25311.0,29232.08,14583.02,8357.48
1389708.861,5162.05,15238.24,35518.7,35922.77,25273.71,29272.89,14849.66,8326.44
1389708.863,5245.16,15371.75,35495.52,35878.52,25249.25,29275.37,15017.42,8311.42
1389708.865,4469.68,15355.4,35464.58,35845.09,25238.09,29222.83,14957.1,8311.22
1389708.867,3083.56,15150.45,35467.87,35851.44,25270.89,29139.33,14640.09,8347.66
1389708.869,2066.56,14891.15,35507.97,35903.65,25334.27,29090.79,14304.69,8407.88
1389708.871,2129.17,14765.74,35551.17,35954.77,25373.03,29090.22,14172.79,8439.78
1389708.873,2996.97,14819.19,35574.25,35969.93,25377.18,29159.22,14280.46,8437.4
1389708.875,4049.97,14980.65,35572.49,35958.1,25352.1,29234.22,14515.31,8405.59
1389708.877,5003.69,15192.46,35538.49,35924.11,25298.84,29292.16,14798.88,8348.51
1389708.879,5298.66,15347.01,35493.76,35876.09,25250.39,29295.3,14990.57,8301.02
1389708.881,4846.86,15392.21,35475.93,35859.83,25241.62,29268.98,15013.32,8292.82
1389708.883,3555.44,15236.52,35464.2,35860.21,25252.54,29150.06,14763.02,8307.89
1389708.885,2298.55,14963.77,35481.74,35894.35,25296.5,29074.29,14407.78,8348.61
1389708.887,1973.06,14778.62,35529.95,35962.01,25349.91,29085.07,14188.34,8382.8
1389708.889,2660.94,14776.76,35565.95,36001.78,25370.79,29161.55,14228.63,8388.62
1389708.891,3683.85,14910.56,35570.91,36009.13,25353.63,29245.05,14445.35,8362.87
1389708.893,4730.65,15117.22,35548.64,35967.69,25311.85,29282.53,14719.44,8340.26
1389708.895,5289.32,15315.25,35515.46,35910.47,25270.37,29293.68,14952.95,8318.33
1389708.897,5099.39,15404.61,35484.37,35868.6,25244.0,29244.57,15034.25,8300.02
1389708.899,4055.5,15328.22,35472.3,35852.53,25253.97,29177.14,14881.09,8304.41
1389708.901,2646.16,15068.25,35482.7,35869.36,25299.5,29103.66,14532.09,8339.69
1389708.903,1951.98,14820.43,35523.61,35914.85,25355.63,29070.29,14236.36,8397.48
1389708.905,2344.08,14747.0,35556.23,35949.71,25379.95,29107.24,14171.89,8429.91
1389708.907,3334.0,14851.81,35573.06,35959.25,25373.32,29193.45,14350.23,8429.81
1389708.909,4419.28,15060.95,35571.29,35946.33,25345.52,29269.98,14642.91,8405.83
1389708.911,5212.36,15282.39,35529.19,35902.55,25289.49,29293.02,14919.95,8350.71
1389708.913,5263.33,15415.96,35489.28,35870.22,25254.63,29291.11,15067.58,8305.93
1389708.915,4516.65,15399.65,35470.06,35874.75,25249.2,29232.7,14979.98,8295.97
1389708.917,3098.39,15177.54,35476.21,35892.87,25284.05,29143.77,14658.88,8324.58
1389708.919,2079.82,14893.72,35512.17,35935.6,25340.8,29099.99,14321.38,8376.12
1389708.921,2102.28,14740.18,35547.31,35964.11,25372.13,29116.82,14170.93,8408.93
1389708.923,2983.95,14784.39,35556.7,35958.34,25366.17,29177.14,14284.56,8412.89
1389708.925,4020.12,14949.7,35542.68,35923.68,25331.21,29232.93,14515.97,8383.56
1389708.927,5008.17,15191.75,35523.75,35900.55,25293.78,29287.01,14813.85,8346.51
1389708.929,5327.23,15379.1,35496.43,35870.41,25259.88,29307.7,15023.04,8306.89
1389708.931,4882.77,15424.21,35478.12,35855.73,25244.67,29250.77,15031.86,8287.72
1389708.933,3584.81,15262.03,35472.21,35856.49,25263.98,29152.64,14776.47,8306.41
1389708.935,2312.61,14966.87,35499.2,35889.77,25318.63,29097.32,14399.24,8357.96
1389708.937,1961.66,14760.21,35544.11,35933.21,25370.79,29091.31,14158.68,8410.5
1389708.939,2642.44,14745.09,35571.1,35961.25,25387.1,29134.8,14186.05,8424.09
1389708.941,3670.69,14890.39,35575.68,35963.97,25369.31,29204.32,14403.68,8406.88
1389708.943,4742.43,15123.13,35561.38,35945.75,25330.78,29279.81,14707.61,8372.83
1389708.945,5327.03,15347.72,35529.38,35911.04,25284.72,29312.09,14967.59,8324.39
1389708.947,5136.92,15434.03,35495.14,35883.43,25254.2,29297.55,15044.88,8288.91
1389708.949,4098.7,15352.2,35476.26,35891.58,25258.83,29228.83,14885.62,8280.37
1389708.951,2663.56,15068.72,35488.37,35916.81,25308.18,29121.69,14517.36,8329.11
1389708.953,1952.41,14804.7,35525.47,35941.8,25361.92,29078.15,14214.95,8396.29
1389708.955,2323.53,14721.68,35562.47,35965.21,25391.87,29106.91,14159.16,8436.73
1389708.957,3323.6,14827.4,35569.77,35964.59,25379.76,29152.92,14330.48,8421.47
1389708.959,4380.42,15022.76,35554.51,35942.84,25340.56,29222.3,14607.34,8363.58
1389708.961,5215.31,15273.48,35525.85,35933.21,25290.4,29272.04,14899.59,8287.62
1389708.963,5264.43,15412.67,35492.62,35917.33,25254.87,29281.43,15042.35,8239.99
1389708.965,4543.4,15413.91,35476.16,35914.09,25250.01,29233.17,14975.98,8258.01
1389708.967,3096.39,15187.79,35494.24,35912.66,25297.31,29147.96,14651.35,8341.07
1389708.969,2078.1,14887.29,35529.14,35914.14,25359.49,29098.37,14301.11,8423.62
1389708.971,2062.03,14718.3,35567.81,35934.12,25395.92,29090.03,14139.75,8468.3
1389708.973,2980.04,14775.8,35589.41,35949.85,25395.21,29133.75,14255.24,8466.91
1389708.975,4018.78,14959.58,35588.94,35948.09,25378.09,29218.34,14513.07,8440.3
1389708.977,5039.69,15207.58,35555.27,35913.76,25325.02,29298.6,14823.39,8381.32
1389708.979,5332.04,15391.88,35522.37,35882.38,25289.06,29317.19,15032.48,8341.17
1389708.981,4910.85,15438.99,35490.52,35863.36,25264.31,29243.95,15031.63,8318.0
1389708.983,3576.18,15272.81,35482.84,35865.55,25280.53,29150.25,14775.99,8328.87
1389708.985,2319.15,14970.3,35518.56,35917.67,25337.08,29077.91,14410.21,8370.69
1389708.987,1936.58,14759.4,35574.82,35986.48,25401.83,29092.22,14185.62,8426.0
1389708.989,2653.65,14754.25,35601.0,36013.56,25420.29,29144.2,14220.14,8443.4
1389708.991,3649.52,14885.95,35583.79,35979.32,25389.34,29188.16,14415.55,8416.03
1389708.993,4742.77,15120.22,35560.66,35955.48,25338.41,29248.15,14713.19,8373.5
1389708.995,5302.62,15341.9,35523.32,35918.53,25285.91,29281.72,14969.16,8312.46
1389708.997,5152.18,15445.42,35495.91,35896.21,25260.12,29275.33,15059.57,8274.17
1389708.999,4098.27,15364.31,35490.28,35883.1,25272.75,29212.76,14906.89,8294.01
1389709.001,2680.06,15076.45,35509.54,35887.2,25325.49,29128.27,14548.35,8356.24
1389709.003,1934.24,14798.36,35550.69,35916.24,25384.57,29104.19,14240.36,8428.24
1389709.005,2334.26,14719.68,35594.85,35961.25,25421.24,29157.02,14183.14,8470.73
1389709.007,3329.8,14836.93,35606.05,35972.79,25413.18,29225.88,14367.11,8461.95
1389709.009,4412.17,15049.55,35591.46,35961.3,25376.28,29290.73,14645.01,8423.19
1389709.011,5244.3,15315.96,35567.91,35944.32,25334.5,29345.23,14947.8,8376.5
1389709.013,5317.4,15459.92,35533.72,35916.52,25293.73,29323.3,15093.52,8330.39
1389709.015,4589.99,15458.87,35520.22,35912.66,25289.68,29270.37,15027.57,8328.49
1389709.017,3152.47,15214.59,35525.85,35917.48,25327.83,29186.01,14703.04,8364.01
1389709.019,2102.04,14897.01,35553.08,35933.02,25379.33,29129.46,14343.64,8416.56
1389709.021,2098.42,14726.02,35597.47,35974.55,25428.11,29136.14,14184.19,8459.95
1389709.023,3003.79,14783.19,35611.3,35984.19,25422.72,29186.44,14295.25,8451.89
1389709.025,4038.05,14959.86,35594.99,35968.74,25388.58,29246.38,14537.0,8415.03
1389709.027,5058.86,15231.28,35569.91,35942.94,25342.75,29304.17,14848.09,8370.78
1389709.029,5356.26,15415.05,35525.8,35902.65,25292.45,29312.42,15047.31,8324.19
1389709.031,4934.93,15464.36,35489.37,35884.05,25258.88,29270.7,15058.09,8297.06
1389709.033,3603.55,15276.91,35475.45,35870.6,25269.13,29171.61,14793.97,8302.36
1389709.035,2324.82,14958.57,35497.81,35883.57,25318.39,29107.48,14415.55,8344.13
1389709.037,1911.97,14716.39,35544.3,35929.16,25378.9,29094.75,14164.07,8394.81
1389709.039,2617.5,14703.94,35571.48,35951.33,25390.68,29126.36,14191.15,8410.07
1389709.041,3630.21,14850.9,35573.44,35958.2,25365.74,29196.65,14411.26,8390.14
1389709.043,4736.09,15109.11,35552.7,35948.38,25319.01,29259.97,14716.53,8339.98
1389709.045,5300.81,15335.28,35513.6,35904.22,25267.37,29290.82,14971.69,8278.85
1389709.047,5166.01,15452.77,35487.13,35875.75,25244.95,29277.28,15066.05,8256.15
1389709.049,4106.71,15363.46,35477.79,35861.54,25257.5,29203.42,14897.78,8279.04
1389709.051,2693.7,15072.01,35495.19,35865.03,25307.56,29121.07,14535.48,8341.07
1389709.053,1927.04,14787.77,35541.2,35910.42,25376.13,29102.71,14237.45,8410.65
1389709.055,2337.36,14712.67,35596.14,35975.46,25420.29,29157.79,14173.08,8441.45
1389709.057,3320.36,14831.16,35618.07,36003.98,25423.1,29216.77,14359.76,8443.31
1389709.059,4437.49,15067.29,35618.6,35993.48,25398.4,29286.34,14667.32,8427.57
1389709.061,5239.63,15315.01,35572.91,35937.7,25334.74,29315.48,14954.62,8370.88
1389709.063,5334.52,15470.36,35530.38,35890.3,25286.63,29292.11,15102.82,8328.96
1389709.065,4581.64,15455.15,35510.69,35875.94,25278.0,29232.7,15012.55,8324.34
1389709.067,3156.09,15205.05,35510.64,35879.76,25304.94,29152.64,14678.53,8352.23
1389709.069,2061.22,14871.79,35543.49,35911.23,25362.69,29098.42,14316.85,8408.4
1389709.071,2066.76,14702.75,35587.98,35954.81,25407.51,29096.18,14148.52,8451.13
1389709.073,2940.32,14752.1,35599.76,35961.58,25407.17,29159.07,14245.99,8447.31
1389709.075,4008.1,14936.16,35585.07,35945.75,25375.32,29216.96,14504.48,8412.55
1389709.077,5017.81,15216.64,35568.15,35933.64,25340.32,29293.54,14839.56,8377.74
1389709.079,5365.28,15424.16,35531.19,35900.74,25296.36,29304.7,15057.85,8336.69
1389709.081,4929.11,15473.94,35498.81,35876.56,25272.04,29266.27,15068.82,8312.66
1389709.083,3645.75,15302.71,35498.96,35880.14,25298.36,29172.52,14812.33,8330.16
1389709.085,2337.55,14980.03,35529.76,35909.75,25354.53,29110.96,14447.6,8377.93
1389709.087,1952.98,14749.05,35585.07,35970.74,25412.37,29113.92,14209.22,8435.35
1389709.089,2633.05,14737.08,35618.45,36005.69,25428.78,29167.37,14219.33,8457.14
1389709.091,3666.59,14887.0,35620.07,36004.26,25411.42,29237.08,14428.57,8438.45
1389709.093,4741.57,15134.96,35598.09,35976.37,25366.55,29297.31,14735.84,8392.48
1389709.095,5338.38,15367.94,35555.03,35927.06,25309.57,29314.57,14993.62,8330.49
1389709.097,5167.06,15471.51,35514.88,35893.44,25274.47,29273.8,15077.21,8294.25
1389709.099,4139.09,15381.0,35502.2,35887.77,25278.86,29196.89,14912.08,8298.35
1389709.101,2690.79,15078.45,35518.6,35896.02,25326.64,29102.62,14540.72,8338.17
1389709.103,1934.24,14779.0,35560.56,35940.27,25385.43,29072.24,14218.05,8400.82
1389709.105,2293.83,14688.06,35600.86,35976.94,25417.86,29112.96,14147.86,8444.12
1389709.107,3294.28,14798.98,35611.35,35975.99,25411.13,29191.21,14328.15,8444.93
1389709.109,4381.94,15030.77,35603.72,35962.82,25379.66,29261.78,14618.83,8417.18
1389709.111,5227.57,15294.36,35567.67,35932.55,25325.06,29298.17,14917.52,8363.53
1389709.113,5313.21,15458.87,35531.62,35900.5,25288.39,29291.92,15081.79,8333.25
1389709.115,4601.53,15458.68,35517.84,35892.68,25283.63,29246.57,15025.19,8334.78
1389709.117,3170.01,15214.54,35515.36,35894.21,25309.14,29151.68,14700.08,8358.77
1389709.119,2098.75,14882.04,35548.31,35925.2,25362.49,29102.47,14335.2,8404.97
1389709.121,2078.72,14702.37,35590.7,35968.12,25405.12,29120.07,14163.88,8433.53
1389709.123,2970.46,14763.02,35621.79,35995.15,25419.95,29195.84,14278.56,8441.88
1389709.125,4038.62,14964.39,35625.56,35994.01,25401.79,29272.13,14540.39,8429.29
1389709.127,5036.21,15223.79,35592.37,35957.15,25351.81,29319.91,14848.28,8384.37
1389709.129,5368.66,15422.3,35546.88,35910.23,25310.23,29320.43,15060.43,8343.84
1389709.131,4935.84,15465.31,35512.17,35878.38,25292.49,29264.74,15067.87,8323.72
1389709.133,3655.82,15295.84,35504.49,35867.27,25307.94,29175.57,14820.05,8334.78
1389709.135,2344.7,14962.39,35529.62,35886.86,25358.35,29112.01,14432.86,8376.55
1389709.137,1933.86,14714.48,35568.77,35924.73,25400.21,29106.19,14174.42,8404.97
1389709.139,2605.15,14705.76,35609.3,35967.88,25423.15,29163.75,14205.93,8427.86
1389709.141,3658.68,14872.98,35621.55,35985.38,25415.85,29245.09,14437.63,8419.09
1389709.143,4726.27,15112.59,35598.57,35954.77,25367.26,29287.29,14733.94,8370.4
1389709.145,5342.77,15365.36,35564.95,35923.44,25313.9,29307.18,15006.83,8318.47
1389709.147,5190.66,15478.09,35532.67,35898.59,25285.39,29300.12,15104.25,8290.39
1389709.149,4176.81,15388.59,35511.83,35875.13,25282.29,29198.36,14933.4,8274.99
1389709.151,2720.79,15081.69,35524.04,35872.03,25327.21,29129.65,14574.34,8325.67
1389709.153,1967.81,14789.15,35566.52,35910.85,25389.96,29099.66,14261.68,8408.17
1389709.155,2292.3,14682.25,35603.72,35954.38,25425.87,29120.5,14176.51,8451.08
1389709.157,3301.62,14798.31,35617.02,35977.51,25419.67,29204.42,14345.98,8437.3
1389709.159,4374.89,15015.79,35607.49,35974.65,25388.82,29280.28,14622.59,8399.39
1389709.161,5243.83,15288.93,35572.2,35947.52,25339.22,29306.51,14926.53,8354.43
1389709.163,5311.16,15446.86,35531.05,35891.11,25298.5,29291.68,15083.27,8324.72
1389709.165,4630.57,15446.9,35510.35,35854.82,25287.82,29253.87,15019.42,8319.33
1389709.167,3191.42,15204.86,35521.23,35865.03,25327.64,29183.34,14697.32,8356.33
1389709.169,2128.22,14884.66,35562.42,35908.75,25392.92,29113.2,14336.78,8413.03
1389709.171,2064.04,14698.13,35608.63,35956.29,25444.13,29117.64,14170.22,8455.37
1389709.173,2968.84,14748.34,35626.7,35966.93,25443.6,29183.2,14278.22,8452.8
1389709.175,3992.84,14927.82,35612.87,35941.8,25405.31,29248.86,14529.61,8416.75
1389709.177,5026.48,15199.19,35580.83,35908.8,25346.9,29298.12,14851.24,8356.33
1389709.179,5352.45,15407.99,35543.59,35870.79,25296.02,29312.33,15067.15,8301.78
1389709.181,4981.85,15479.52,35521.8,35858.68,25275.04,29298.74,15098.38,8281.8
1389709.183,3684.19,15307.95,35520.65,35868.98,25296.21,29209.33,14833.74,8313.23
1389709.185,2398.68,14988.04,35553.75,35908.66,25354.53,29133.51,14456.66,8365.11
1389709.187,1947.45,14739.09,35599.76,35974.46,25405.03,29109.2,14201.36,8391.95
1389709.189,2620.55,14718.82,35628.13,36015.13,25411.08,29162.74,14226.53,8393.15
1389709.191,3625.68,14859.39,35621.12,35988.81,25384.86,29232.74,14431.14,8394.91
1389709.193,4735.42,15113.83,35604.0,35961.35,25348.38,29298.98,14731.08,8371.5
1389709.195,5337.53,15361.98,35565.57,35905.32,25309.47,29316.14,14981.65,8341.27
1389709.197,5203.2,15474.85,35526.23,35858.68,25279.72,29290.35,15082.79,8310.65
1389709.199,4180.34,15388.44,35506.54,35845.86,25282.48,29202.27,14923.19,8303.98
1389709.201,2747.58,15087.65,35520.03,35868.36,25324.63,29112.68,14550.4,8347.51
1389709.203,1956.7,14788.53,35557.51,35901.36,25378.66,29083.64,14234.02,8401.35
1389709.205,2283.53,14679.82,35592.7,35929.16,25409.51,29119.11,14150.76,8432.01
1389709.207,3273.54,14794.26,35603.81,35937.36,25407.03,29198.41,14328.05,8432.01
1389709.209,4365.73,15020.47,35601.33,35935.93,25385.1,29269.56,14613.44,8414.36
1389709.211,5224.13,15295.41,35575.68,35914.33,25341.8,29309.04,14917.52,8369.26
1389709.213,5320.6,15454.34,35539.06,35877.76,25299.65,29309.66,15082.55,8322.05
1389709.215,4627.85,15447.33,35510.54,35854.58,25280.48,29253.53,15021.85,8293.3
1389709.217,3195.33,15198.42,35514.26,35865.5,25314.62,29165.89,14697.6,8320.0
1389709.219,2126.79,14884.9,35552.55,35910.66,25378.28,29111.06,14339.02,8385.71
1389709.221,2060.7,14691.64,35589.51,35953.62,25416.19,29112.44,14154.63,8424.95
1389709.223,2952.62,14749.34,35615.16,35976.22,25418.28,29189.78,14267.83,8429.1
1389709.225,3992.37,14936.54,35615.88,35971.69,25392.96,29271.56,14526.51,8403.59
1389709.227,5039.41,15223.12,35597.52,35963.73,25348.95,29324.25,14850.19,8361.39
1389709.229,5380.73,15432.88,35562.19,35926.06,25306.04,29335.65,15070.63,8314.04
1389709.231,4999.78,15501.6,35529.28,35880.62,25282.77,29312.52,15099.77,8299.16
1389709.233,3697.78,15323.26,35506.4,35856.2,25290.06,29214.05,14839.46,8307.46
1389709.235,2396.97,14993.81,35519.99,35880.62,25332.41,29119.07,14446.83,8345.65
1389709.237,1931.52,14733.55,35562.28,35926.73,25387.91,29110.44,14185.38,8407.4
1389709.239,2604.63,14715.86,35593.32,35959.06,25407.22,29162.08,14204.55,8430.15
1389709.241,3609.42,14860.3,35593.9,35944.75,25390.82,29231.89,14420.42,8422.42
1389709.243,4735.38,15125.47,35584.74,35919.05,25361.21,29320.2,14741.09,8396.2
1389709.245,5343.2,15376.57,35558.85,35895.49,25325.59,29360.11,15021.66,8355.0
1389709.247,5241.35,15504.27,35530.29,35877.71,25299.55,29347.71,15129.66,8324.29
1389709.249,4214.14,15416.91,35510.12,35867.98,25294.97,29253.25,14971.69,8315.8
1389709.251,2790.83,15120.27,35520.75,35877.85,25331.93,29174.28,14602.47,8352.47
1389709.253,1966.76,14807.66,35560.9,35915.0,25391.34,29132.99,14261.44,8402.59
1389709.255,2323.29,14718.96,35610.16,35966.93,25432.4,29176.14,14194.92,8440.07
1389709.257,3287.55,14828.3,35626.89,35983.38,25428.49,29218.87,14376.26,8434.82
1389709.259,4397.25,15055.47,35626.32,35977.99,25395.68,29284.77,14663.94,8400.73
1389709.261,5235.15,15310.72,35597.47,35939.03,25345.14,29324.87,14941.26,8356.72
1389709.263,5360.79,15475.56,35558.94,35910.52,25300.08,29324.25,15102.77,8319.66
1389709.265,4644.44,15464.83,35528.66,35891.82,25282.05,29243.19,15034.96,8297.64
1389709.267,3236.01,15221.26,35526.85,35893.4,25306.04,29147.1,14703.47,8305.41
1389709.269,2128.98,14893.34,35565.76,35925.3,25367.6,29109.29,14338.83,8362.06
1389709.271,2087.45,14715.96,35611.35,35967.45,25421.43,29134.94,14175.85,8436.39
1389709.273,2938.41,14761.5,35631.42,35977.37,25432.88,29199.27,14282.42,8455.13
1389709.275,4002.48,14943.17,35619.07,35952.86,25407.13,29256.49,14532.19,8436.59
1389709.277,5003.79,15200.52,35582.5,35916.14,25355.01,29309.09,14833.02,8387.47
1389709.279,5378.01,15410.0,35538.77,35876.76,25307.13,29318.19,15054.13,8336.02
1389709.281,4983.28,15478.04,35510.45,35852.48,25287.2,29290.49,15088.42,8312.7
1389709.283,3740.03,15318.44,35506.87,35852.72,25306.37,29209.33,14847.42,8329.92
1389709.285,2412.27,14990.05,35531.33,35868.55,25354.82,29133.23,14461.95,8379.27
1389709.287,1959.47,14727.64,35566.48,35901.84,25400.16,29110.1,14188.05,8423.85
1389709.289,2591.99,14701.94,35603.0,35942.99,25427.73,29156.35,14203.12,8447.7
1389709.291,3631.12,14860.92,35617.02,35962.73,25423.34,29237.89,14430.05,8440.59
1389709.293,4720.97,15119.75,35604.05,35952.24,25386.15,29307.08,14740.42,8399.77
1389709.295,5355.98,15360.36,35566.76,35911.04,25337.03,29337.27,15003.78,8350.56
1389709.297,5226.57,15474.46,35532.14,35874.42,25303.37,29329.11,15103.25,8318.43
1389709.299,4239.27,15396.64,35520.46,35866.55,25305.66,29254.82,14954.09,8321.24
1389709.301,2796.55,15104.3,35542.59,35887.58,25351.67,29158.12,14590.46,8364.63
1389709.303,1993.56,14796.16,35580.45,35925.34,25403.5,29125.36,14252.62,8414.51
1389709.305,2300.26,14687.06,35615.5,35972.03,25430.4,29163.27,14170.7,8435.87
1389709.307,3268.43,14788.72,35622.36,35994.34,25418.86,29205.85,14334.25,8416.7
1389709.309,4345.47,15012.7,35615.35,35996.54,25389.53,29269.6,14616.16,8375.6
1389709.311,5221.51,15281.77,35586.79,35958.58,25343.37,29313.0,14920.28,8332.21
1389709.313,5350.45,15461.78,35557.66,35906.99,25311.04,29319.72,15119.03,8314.56
1389709.315,4688.55,15476.66,35545.5,35897.5,25305.66,29281.67,15088.13,8318.0
1389709.317,3272.15,15234.52,35541.73,35893.4,25326.68,29185.92,14756.82,8350.28
1389709.319,2158.93,14897.54,35570.91,35915.43,25369.36,29133.75,14364.1,8412.79
1389709.321,2072.24,14704.42,35601.76,35943.23,25406.13,29115.39,14165.55,8449.94
1389709.323,2918.53,14745.76,35617.07,35965.02,25417.71,29156.5,14252.71,8451.13
1389709.325,3976.97,14935.4,35609.96,35955.48,25402.88,29228.36,14511.73,8423.04
1389709.327,4999.64,15201.9,35584.98,35920.91,25365.78,29296.69,14831.78,8383.08
1389709.329,5385.64,15418.91,35547.4,35880.52,25323.87,29322.39,15059.76,8345.56
1389709.331,5012.32,15484.43,35522.51,35863.02,25300.93,29301.6,15083.7,8321.62
1389709.333,3757.38,15321.21,35503.25,35851.24,25305.89,29204.42,14831.59,8319.62
1389709.335,2416.71,14988.47,35519.79,35869.79,25354.2,29129.79,14452.84,8367.11
1389709.337,1954.56,14734.84,35559.18,35919.81,25401.88,29102.85,14186.53,8417.46
1389709.339,2571.25,14697.84,35585.6,35945.09,25411.66,29138.71,14192.73,8430.39
1389709.341,3611.14,14855.24,35601.62,35952.05,25402.5,29207.42,14418.75,8413.46
1389709.343,4687.5,15106.87,35598.76,35938.41,25369.46,29274.9,14721.59,8385.42
1389709.345,5344.3,15361.26,35567.24,35904.65,25314.86,29302.74,14991.19,8341.46
1389709.347,5215.69,15471.75,35528.0,35868.51,25278.52,29283.19,15090.61,8306.7
1389709.349,4253.82,15401.79,35512.07,35858.35,25279.38,29215.01,14947.85,8306.31
1389709.351,2805.04,15110.16,35533.53,35891.35,25329.59,29137.28,14595.65,8343.98
1389709.353,2005.29,14809.32,35570.86,35936.26,25379.8,29105.05,14275.6,8374.12
1389709.355,2273.7,14687.35,35604.62,35981.37,25411.89,29133.23,14173.41,8391.19
1389709.357,3267.24,14790.87,35614.78,35983.38,25406.75,29205.37,14338.16,8401.82
1389709.359,4335.69,15014.46,35610.35,35953.81,25384.38,29272.04,14620.83,8405.02
1389709.361,5231.43,15288.12,35576.97,35902.98,25336.55,29308.7,14921.33,8374.5
1389709.363,5339.19,15457.11,35540.06,35871.89,25304.08,29309.56,15089.9,8342.12
1389709.365,4708.1,15466.83,35515.69,35862.21,25290.59,29260.92,15039.26,8322.53
1389709.367,3269.72,15226.13,35514.26,35859.21,25314.38,29166.27,14709.05,8351.52
1389709.369,2170.47,14899.21,35549.69,35891.25,25362.73,29095.84,14333.92,8407.74
1389709.371,2045.68,14692.5,35583.45,35923.87,25390.1,29093.7,14138.89,8432.68
1389709.373,2926.06,14740.66,35609.77,35943.18,25396.87,29156.59,14234.5,8433.3
1389709.375,3952.84,14926.82,35608.44,35935.12,25376.32,29229.69,14490.99,8408.5
1389709.377,5006.31,15201.81,35591.03,35920.15,25340.04,29294.16,14816.91,8369.16
1389709.379,5370.43,15417.24,35556.46,35896.4,25310.23,29318.1,15050.75,8328.82
1389709.381,5032.83,15492.58,35530.81,35882.57,25298.41,29292.25,15094.23,8310.56
1389709.383,3782.51,15340.57,35522.99,35879.81,25317.1,29212.72,14863.54,8328.3
1389709.385,2467.54,15014.22,35540.63,35892.59,25361.11,29144.91,14481.93,8370.45
1389709.387,1968.34,14749.0,35575.54,35924.73,25409.51,29125.88,14205.12,8418.94
1389709.389,2602.96,14716.63,35609.68,35959.06,25430.97,29187.54,14215.57,8440.45
1389709.391,3599.69,14859.73,35612.54,35960.68,25413.71,29230.79,14425.14,8426.43
1389709.393,4697.51,15108.49,35594.28,35943.32,25371.22,29290.01,14727.69,8384.47
1389709.395,5340.24,15361.45,35556.65,35904.27,25320.1,29326.11,15001.35,8335.11
1389709.397,5244.78,15482.62,35522.47,35868.74,25286.01,29309.61,15104.44,8303.21
1389709.399,4270.55,15406.47,35503.68,35853.53,25281.81,29228.79,14960.96,8302.88
1389709.401,2825.07,15102.29,35512.74,35862.59,25318.91,29133.94,14586.59,8343.89
1389709.403,1989.75,14796.69,35549.79,35898.4,25371.03,29094.08,14252.04,8398.34
1389709.405,2278.85,14686.78,35595.99,35943.89,25413.8,29144.77,14167.07,8437.63
1389709.407,3257.7,14796.69,35608.3,35957.29,25411.7,29223.64,14336.25,8428.81
1389709.409,4323.24,15011.36,35597.95,35947.99,25379.76,29289.39,14616.3,8394.05
1389709.411,5216.41,15291.12,35578.92,35925.63,25336.79,29339.08,14927.68,8356.38
1389709.413,5350.73,15458.01,35544.3,35891.73,25298.07,29345.47,15094.38,8316.04
1389709.415,4707.29,15463.78,35517.22,35870.7,25281.48,29247.43,15035.63,8273.79
1389709.417,3292.51,15232.14,35527.81,35875.75,25309.23,29153.06,14726.55,8286.33
1389709.419,2179.77,14912.32,35558.28,35906.03,25351.19,29106.05,14365.96,8336.93
1389709.421,2064.18,14719.77,35603.43,35966.07,25397.21,29128.08,14176.8,8396.44
1389709.423,2934.03,14774.47,35635.14,36011.03,25417.04,29193.31,14287.43,8419.42
1389709.425,3959.75,14952.95,35642.91,36016.52,25411.28,29248.43,14539.91,8412.74
1389709.427,5009.56,15232.14,35625.89,35988.38,25381.28,29309.75,14862.21,8401.59
1389709.429,5375.0,15427.69,35574.82,35919.15,25321.92,29312.61,15070.96,8365.11
1389709.431,5035.07,15492.25,35532.57,35869.79,25285.91,29263.07,15088.23,8341.89
1389709.433,3780.08,15334.27,35522.27,35858.35,25310.71,29181.39,14820.91,8371.16
1389709.435,2465.15,15008.36,35542.06,35881.48,25371.22,29107.76,14422.75,8420.42
1389709.437,1931.81,14730.74,35577.73,35925.2,25427.25,29080.87,14155.91,8458.57
1389709.439,2567.2,14707.04,35608.49,35967.16,25448.13,29133.75,14173.56,8471.97
1389709.441,3558.68,14846.95,35610.44,35977.27,25433.3,29201.94,14378.98,8452.99
1389709.443,4656.74,15084.7,35584.5,35954.91,25386.72,29256.78,14674.67,8397.15
1389709.445,5288.55,15327.22,35555.56,35919.67,25343.66,29293.97,14948.99,8359.39
1389709.447,5230.09,15458.97,35526.23,35881.33,25317.15,29289.44,15072.49,8346.65
1389709.449,4271.08,15396.74,35516.89,35874.32,25319.44,29228.07,14946.22,8357.05
1389709.451,2856.4,15122.94,35535.58,35901.6,25360.21,29160.36,14598.09,8392.57
1389709.453,1987.89,14817.72,35577.59,35949.9,25423.63,29134.9,14270.78,8438.78
1389709.455,2273.66,14700.18,35623.03,35998.73,25459.72,29132.56,14166.55,8466.1
1389709.4572,3224.85,14794.49,35653.55,36012.56,25452.28,29187.49,14324.81,8468.53
1389709.4592,4316.95,15017.99,35650.78,35990.72,25412.28,29259.26,14602.95,8451.46
1389709.4612,5191.28,15286.5,35616.07,35947.37,25361.02,29321.15,14911.94,8406.45
1389709.4632,5361.75,15464.74,35572.01,35912.99,25327.26,29320.1,15091.61,8366.49
1389709.4652,4711.25,15472.41,35537.63,35902.12,25333.36,29267.12,15046.36,8372.07
1389709.4672,3318.41,15240.81,35531.76,35907.27,25378.56,29170.66,14733.51,8408.55
1389709.4692,2157.83,14896.54,35555.61,35916.33,25434.64,29101.76,14351.51,8452.75
1389709.4712,2049.26,14702.13,35592.8,35958.34,25476.27,29111.53,14162.07,8487.99
1389709.4732,2882.43,14743.23,35616.93,35987.43,25482.47,29182.1,14255.33,8495.19
1389709.4752,3951.17,14938.26,35626.61,35997.54,25466.35,29261.54,14513.21,8476.16
1389709.4772,4980.14,15207.72,35599.52,35970.02,25423.15,29318.86,14827.25,8432.58
1389709.4792,5399.51,15427.02,35566.72,35935.84,25378.04,29345.9,15060.14,8381.99
1389709.4812,5053.71,15501.07,35539.92,35907.32,25354.29,29331.16,15107.44,8347.94
1389709.4832,3837.54,15349.68,35529.95,35908.42,25360.16,29214.43,14866.83,8364.49
1389709.4852,2472.07,15021.23,35544.21,35927.35,25395.35,29113.96,14472.1,8416.37
1389709.4872,1971.58,14763.88,35590.75,35979.32,25444.42,29100.28,14204.6,8471.82
1389709.489,2564.86,14728.64,35627.56,36008.03,25465.01,29149.44,14207.94,8498.05
1389709.491,3582.05,14868.59,35630.23,35992.72,25450.66,29209.86,14413.07,8487.13
1389709.493,4668.05,15111.93,35612.87,35954.77,25411.89,29274.66,14715.96,8446.65
1389709.495,5354.31,15372.75,35592.27,35928.4,25376.42,29329.45,15002.87,8413.89
1389709.497,5276.01,15502.22,35562.19,35902.93,25344.42,29324.34,15120.65,8381.42
1389709.499,4334.74,15430.12,35542.78,35893.49,25332.12,29254.87,14981.32,8372.36
1389709.501,2877.0,15137.34,35542.97,35900.02,25358.01,29161.17,14610.82,8397.63
1389709.503,2018.36,14824.68,35576.59,35937.03,25417.9,29118.06,14269.54,8450.7
1389709.505,2280.62,14710.71,35618.17,35988.72,25467.21,29151.87,14176.51,8489.09
1389709.507,3247.45,14807.18,35637.43,36009.79,25471.64,29222.44,14335.44,8483.32
1389709.509,4322.39,15021.52,35627.13,35995.73,25438.98,29295.54,14615.73,8453.32
1389709.511,5225.56,15294.17,35605.15,35963.63,25394.92,29351.38,14934.45,8409.22
1389709.513,5392.08,15482.86,35586.31,35947.09,25359.82,29334.69,15113.78,8375.22
1389709.515,4765.03,15499.31,35572.91,35936.74,25345.85,29279.38,15073.44,8377.6
1389709.517,3375.96,15276.96,35575.39,35935.6,25367.93,29203.8,14760.07,8401.59
1389709.519,2214.86,14936.12,35590.61,35965.92,25413.8,29117.68,14376.59,8433.01
1389709.521,2065.99,14730.88,35614.88,36014.32,25450.76,29118.68,14171.79,8467.87
1389709.523,2890.25,14759.92,35633.76,36038.31,25458.2,29193.69,14255.81,8484.32
1389709.525,3943.54,14948.13,35623.08,36017.76,25434.07,29256.73,14511.78,8465.53
1389709.527,4973.89,15208.48,35591.03,35967.59,25388.24,29310.9,14826.97,8428.05
1389709.529,5406.67,15436.32,35561.71,35934.6,25353.01,29341.37,15066.05,8400.39
1389709.531,5073.83,15513.95,35535.48,35904.13,25329.55,29330.83,15127.99,8372.26
1389709.533,3867.05,15372.18,35522.04,35888.39,25340.51,29244.9,14894.77,8367.73
1389709.535,2492.9,15035.82,35542.73,35903.65,25387.67,29148.53,14490.03,8409.64
1389709.537,1975.82,14772.61,35587.27,35952.38,25436.26,29106.19,14212.75,8461.91
1389709.539,2540.92,14724.64,35619.22,35987.1,25455.67,29112.15,14197.07,8469.25
1389709.541,3578.0,14868.74,35622.36,35989.43,25436.02,29205.99,14416.55,8447.79
1389709.543,4655.27,15105.3,35600.71,35969.88,25389.29,29281.33,14716.48,8418.99
1389709.545,5349.11,15361.07,35568.1,35946.04,25337.6,29320.34,14999.06,8375.36
1389709.547,5251.5,15483.38,35535.29,35913.52,25312.14,29306.7,15113.16,8352.66
1389709.549,4331.73,15417.63,35510.12,35887.82,25309.04,29234.32,14976.74,8349.99
1389709.551,2868.08,15127.8,35523.28,35902.08,25350.24,29152.3,14613.06,8385.52
1389709.553,2029.71,14832.78,35573.34,35965.35,25414.04,29124.79,14284.42,8429.86
1389709.555,2251.53,14704.99,35615.31,36008.74,25454.33,29140.76,14174.75,8460.43
1389709.557,3244.59,14804.22,35631.71,36013.7,25453.0,29211.81,14338.92,8467.77
1389709.559,4301.79,15021.47,35624.94,35993.63,25425.48,29286.53,14616.68,8459.43
1389709.561,5230.05,15300.23,35594.37,35953.0,25373.65,29324.06,14923.48,8417.37
1389709.563,5372.67,15472.13,35558.7,35901.17,25328.07,29327.68,15102.67,8379.98
1389709.565,4782.3,15490.68,35536.15,35879.62,25314.14,29281.95,15069.25,8354.95
1389709.567,3361.85,15261.79,35539.97,35886.39,25344.99,29188.21,14760.69,8369.02
1389709.569,2216.48,14925.53,35557.8,35921.05,25390.44,29117.44,14380.41,8406.69
1389709.571,2031.42,14709.81,35584.07,35957.1,25431.45,29115.97,14168.03,8454.23
1389709.573,2880.72,14744.05,35603.72,35987.1,25442.32,29176.38,14254.14,8470.58
1389709.575,3907.2,14931.97,35608.44,35994.2,25431.87,29258.45,14509.87,8463.0
1389709.577,4979.04,15206.62,35594.52,35978.99,25393.92,29328.78,14833.17,8429.0
1389709.579,5389.21,15429.16,35555.56,35936.65,25345.38,29355.48,15072.4,8380.8
1389709.581,5077.03,15506.08,35521.18,35906.94,25318.67,29299.79,15107.35,8354.57
1389709.583,3852.89,15356.88,35506.44,35885.91,25329.55,29206.99,14883.33,8360.82
1389709.585,2503.06,15028.53,35523.13,35903.36,25375.56,29125.36,14498.62,8404.26
1389709.587,1952.22,14759.26,35568.43,35945.94,25428.78,29104.28,14216.85,8452.51
1389709.589,2542.16,14718.58,35609.39,35979.75,25453.38,29157.02,14212.23,8475.59
1389709.591,3550.24,14862.59,35614.88,35980.85,25435.07,29226.16,14417.75,8461.14
1389709.593,4648.69,15106.3,35595.33,35966.4,25394.11,29287.58,14715.72,8427.43
1389709.595,5326.89,15360.74,35563.43,35932.59,25346.95,29319.24,14993.72,8381.42
1389709.597,5264.14,15488.96,35534.91,35904.17,25324.78,29309.66,15111.45,8354.86
1389709.599,4347.28,15433.46,35523.8,35890.2,25334.22,29245.28,14988.47,8358.91
1389709.601,2905.42,15145.26,35539.49,35898.59,25377.56,29157.59,14631.56,8403.73
1389709.603,2034.47,14845.56,35583.45,35948.09,25436.26,29136.52,14305.07,8461.14
1389709.605,2251.2,14707.81,35620.22,35986.86,25464.39,29160.69,14187.24,8485.99
1389709.607,3214.41,14796.26,35624.89,35989.96,25448.71,29210.86,14334.97,8470.3
1389709.609,4279.38,15005.26,35617.21,35979.51,25416.42,29276.76,14598.09,8433.3
1389709.611,5203.1,15281.2,35585.88,35956.67,25364.4,29317.24,14904.07,8378.41
1389709.613,5366.85,15463.31,35557.89,35945.56,25328.83,29319.05,15099.81,8331.44
1389709.615,4782.15,15491.92,35536.01,35939.7,25312.09,29266.65,15074.21,8313.32
1389709.617,3367.04,15257.6,35528.38,35939.08,25330.45,29176.43,14759.35,8340.74
1389709.619,2217.87,14934.26,35563.19,35952.72,25388.05,29123.79,14379.22,8419.37
1389709.621,2036.81,14729.55,35615.97,35988.96,25439.5,29136.71,14188.67,8489.28
1389709.623,2885.06,14769.13,35640.96,36005.31,25446.47,29207.23,14282.8,8503.49
1389709.625,3910.83,14937.69,35634.66,35982.76,25422.48,29281.76,14520.46,8474.88
1389709.627,4975.61,15205.34,35606.29,35948.81,25378.23,29327.78,14832.69,8421.61
1389709.629,5382.73,15411.33,35558.75,35907.65,25330.02,29308.04,15044.98,8375.74
1389709.631,5095.01,15500.83,35527.42,35880.76,25306.37,29290.58,15099.67,8362.2
1389709.633,3871.58,15358.88,35525.56,35886.58,25328.69,29225.5,14875.32,8382.75
1389709.635,2522.42,15031.15,35539.77,35911.47,25381.71,29124.12,14478.45,8426.57
1389709.637,1944.92,14753.01,35579.49,35950.38,25437.5,29097.51,14191.34,8468.06
1389709.639,2543.02,14723.59,35624.79,35994.82,25468.02,29131.99,14197.26,8491.18
1389709.641,3543.0,14869.45,35641.87,36000.73,25461.39,29206.71,14412.98,8489.28
1389709.643,4659.75,15112.21,35619.69,35976.65,25416.81,29282.24,14691.45,8446.84
1389709.645,5321.12,15356.49,35573.2,35932.21,25354.01,29299.55,14961.44,8387.81
1389709.647,5282.93,15489.48,35536.44,35901.65,25314.43,29281.72,15077.35,8349.9
1389709.649,4354.86,15426.21,35517.36,35893.25,25310.71,29219.49,14953.76,8332.97
1389709.651,2927.16,15145.73,35526.66,35915.05,25349.43,29132.47,14602.85,8359.53
1389709.653,2011.68,14827.68,35559.71,35947.42,25405.36,29086.69,14255.62,8417.56
1389709.655,2251.2,14711.05,35605.86,35984.23,25450.18,29125.84,14152.62,8466.53
1389709.657,3200.25,14807.04,35626.18,35986.9,25456.96,29198.94,14317.09,8482.5
1389709.659,4295.92,15025.52,35623.89,35975.79,25427.06,29269.6,14593.79,8463.77
1389709.661,5204.39,15298.65,35602.24,35956.39,25378.13,29324.11,14903.74,8425.62
1389709.663,5400.37,15472.56,35557.89,35919.38,25327.69,29317.33,15082.74,8376.17
1389709.665,4794.74,15491.87,35535.48,35902.98,25317.29,29269.27,15052.51,8356.76
1389709.667,3422.17,15277.91,35544.73,35906.37,25350.76,29183.25,14756.2,8384.56
1389709.669,2238.04,14944.65,35582.12,35928.83,25409.18,29129.32,14383.84,8435.63
1389709.671,2074.62,14738.51,35627.99,35973.46,25453.62,29140.67,14178.95,8476.97
1389709.673,2876.0,14765.84,35648.25,35993.15,25459.96,29196.84,14254.14,8488.37
1389709.675,3921.37,14940.07,35639.39,35992.1,25436.07,29251.87,14492.75,8459.52
1389709.677,4957.96,15200.86,35608.39,35977.94,25387.67,29305.65,14802.36,8403.54
1389709.679,5410.62,15429.4,35573.63,35950.14,25336.03,29334.74,15047.98,8366.68
1389709.681,5098.63,15514.52,35547.21,35915.81,25313.43,29311.28,15106.49,8348.7
1389709.683,3915.12,15373.76,35537.44,35902.17,25324.16,29220.49,14881.37,8347.61
1389709.685,2540.45,15051.84,35558.04,35922.05,25363.97,29147.34,14503.77,8391.43
1389709.687,1982.93,14777.95,35601.81,35961.63,25413.09,29117.35,14219.91,8458.57
1389709.689,2528.24,14727.45,35635.33,36001.83,25440.93,29151.97,14197.4,8477.97
1389709.691,3547.72,14862.49,35639.58,36008.51,25433.97,29227.16,14397.53,8461.0
1389709.693,4636.29,15108.25,35622.51,35984.52,25402.45,29301.69,14701.99,8425.71
1389709.695,5343.01,15367.84,35593.66,35959.25,25359.97,29331.88,14987.9,8381.08
1389709.697,5298.57,15506.46,35557.94,35928.92,25330.02,29327.35,15116.84,8349.75
1389709.699,4393.1,15446.19,35535.63,35901.22,25328.45,29248.67,14987.18,8358.38
1389709.701,2946.04,15160.23,35544.02,35898.12,25368.03,29149.54,14623.88,8412.17
1389709.703,2046.2,14844.47,35582.45,35942.8,25427.87,29107.48,14285.14,8472.16
1389709.705,2258.4,14720.97,35629.94,35989.72,25470.88,29135.47,14176.28,8513.17
1389709.707,3203.54,14800.45,35637.76,35995.49,25463.63,29201.89,14315.8,8502.72
1389709.709,4267.65,15008.98,35625.46,35983.71,25432.64,29265.79,14584.11,8471.63
1389709.711,5184.65,15273.53,35592.27,35956.91,25381.23,29318.48,14891.2,8423.66
1389709.713,5379.2,15455.49,35553.6,35914.62,25334.17,29318.48,15078.69,8377.79
1389709.715,4796.89,15478.09,35533.62,35890.06,25319.96,29274.66,15056.28,8359.48
1389709.717,3408.34,15253.4,35523.13,35875.99,25335.36,29173.71,14753.49,8370.31
1389709.719,2230.6,14918.47,35554.56,35904.03,25394.87,29114.63,14372.97,8425.95
1389709.721,2057.84,14722.11,35609.15,35966.59,25452.33,29125.65,14179.66,8484.7
1389709.723,2857.16,14747.81,35636.14,35997.68,25460.91,29184.87,14263.15,8495.05
1389709.725,3893.66,14927.1,35631.04,35995.25,25435.36,29237.89,14505.53,8464.53
1389709.727,4933.74,15186.74,35605.96,35976.37,25387.43,29300.03,14808.04,8411.17
1389709.729,5402.47,15417.43,35573.87,35943.94,25338.03,29331.54,15050.84,8359.96
1389709.731,5085.04,15493.11,35542.3,35913.38,25310.81,29301.12,15103.06,8339.22
1389709.733,3927.09,15360.69,35525.56,35900.5,25321.68,29221.73,14893.58,8357.81
1389709.735,2551.51,15040.97,35548.79,35916.05,25377.85,29158.64,14514.26,8415.22
1389709.737,1984.93,14767.84,35587.17,35955.96,25426.82,29122.45,14216.0,8462.29
1389709.739,2509.98,14717.01,35627.18,35993.82,25455.95,29153.92,14186.48,8485.22
1389709.741,3536.27,14860.15,35634.19,35997.68,25445.51,29208.09,14389.42,8452.85
1389709.743,4609.39,15100.39,35620.93,35984.81,25411.08,29297.36,14696.31,8403.35
1389709.745,5333.28,15360.74,35586.31,35957.87,25360.92,29329.35,14976.55,8357.72
1389709.747,5274.2,15491.34,35550.79,35917.67,25332.88,29309.56,15103.01,8347.66
1389709.749,4416.32,15452.67,35535.91,35905.03,25338.13,29260.5,15008.88,8365.49
1389709.751,2959.63,15172.86,35545.54,35913.33,25380.52,29158.31,14663.94,8415.03
1389709.753,2075.53,14867.64,35583.07,35952.52,25438.88,29107.1,14323.38,8471.16
1389709.755,2241.56,14724.21,35620.5,35999.83,25471.83,29129.41,14168.12,8505.06
1389709.757,3203.06,14808.66,35635.76,36012.75,25461.82,29197.89,14311.51,8492.76
1389709.759,4228.4,15002.59,35621.69,35992.77,25417.28,29258.35,14580.87,8452.04
1389709.761,5170.44,15274.05,35595.23,35964.25,25362.92,29304.98,14887.38,8412.31
1389709.763,5356.46,15457.78,35566.95,35928.92,25337.75,29313.23,15075.88,8388.33
1389709.765,4819.01,15489.53,35544.26,35912.14,25331.6,29266.89,15067.01,8375.84
1389709.767,3423.6,15271.19,35537.58,35907.46,25351.96,29177.72,14773.56,8392.19
1389709.769,2257.06,14933.25,35556.23,35930.69,25393.87,29116.82,14392.9,8423.28
1389709.771,2031.66,14714.05,35601.52,35978.18,25439.31,29115.49,14169.84,8465.86
1389709.773,2850.34,14739.66,35627.13,36009.03,25443.41,29155.69,14226.72,8480.17
1389709.775,3869.25,14919.95,35627.75,35998.16,25428.25,29231.69,14480.5,8459.47
1389709.777,4924.97,15178.49,35600.95,35959.3,25390.63,29292.11,14794.88,8414.98
1389709.779,5356.03,15396.64,35561.66,35907.89,25349.57,29309.75,15028.48,8375.69
1389709.781,5094.48,15482.28,35540.35,35887.63,25334.89,29287.29,15085.99,8359.86
1389709.783,3931.38,15358.88,35540.25,35888.77,25352.62,29220.16,14888.38,8380.56
1389709.785,2585.98,15046.31,35557.66,35912.9,25397.83,29144.58,14517.69,8433.15
1389709.787,1994.75,14773.08,35593.04,35944.51,25444.08,29110.82,14226.58,8477.26
1389709.789,2531.43,14719.63,35630.75,35980.94,25473.31,29157.5,14203.6,8495.05
1389709.791,3526.64,14859.25,35636.38,35986.95,25461.87,29233.36,14406.83,8468.3
1389709.793,4609.11,15097.33,35621.79,35981.37,25419.57,29301.07,14703.37,8417.46
1389709.795,5313.16,15352.44,35587.74,35950.57,25360.87,29334.74,14983.18,8377.17
1389709.797,5286.12,15488.2,35559.56,35932.55,25329.78,29325.39,15111.4,8361.82
1389709.799,4428.1,15448.95,35549.36,35931.07,25339.56,29262.21,15009.12,8370.83
1389709.801,2990.39,15163.95,35557.8,35939.41,25385.86,29167.13,14652.02,8414.08
1389709.803,2079.82,14847.76,35586.7,35964.64,25434.21,29106.81,14298.92,8459.9
1389709.805,2235.22,14705.42,35626.61,35994.82,25467.3,29122.31,14169.12,8499.05
1389709.807,3194.52,14802.6,35650.54,36016.04,25464.68,29198.32,14323.52,8500.53
1389709.809,4233.98,15003.21,35640.86,36008.65,25421.72,29261.54,14586.12,8453.99
1389709.811,5173.16,15281.39,35615.97,35974.46,25366.21,29322.58,14899.4,8406.78
1389709.813,5373.43,15464.59,35590.84,35931.54,25341.94,29332.64,15091.99,8388.9
1389709.815,4831.65,15492.25,35561.23,35910.66,25337.03,29272.99,15067.01,8378.32
1389709.817,3462.12,15275.48,35554.41,35917.86,25360.73,29188.06,14770.89,8385.28
1389709.819,2312.04,14954.71,35573.63,35953.76,25412.66,29116.78,14394.67,8429.24
1389709.821,2071.38,14741.09,35614.21,35993.72,25467.73,29114.77,14180.61,8492.28
1389709.823,2882.29,14778.23,35645.78,36022.1,25485.47,29179.48,14259.29,8521.99
1389709.825,3883.74,14950.9,35651.64,36017.42,25477.7,29258.21,14501.33,8514.31
1389709.827,4952.72,15224.22,35646.06,35999.87,25444.46,29332.5,14820.67,8485.94
1389709.829,5389.36,15441.94,35611.87,35959.44,25397.64,29356.77,15053.85,8439.45
1389709.831,5136.54,15522.77,35572.25,35928.3,25360.97,29327.06,15112.31,8398.92
1389709.833,3966.38,15380.29,35553.89,35917.43,25365.74,29230.03,14901.16,8401.78
1389709.835,2627.75,15069.53,35569.29,35935.36,25412.61,29140.14,14525.46,8443.88
1389709.837,2015.97,14791.87,35603.53,35978.61,25464.92,29116.44,14240.74,8486.99
1389709.839,2551.99,14740.99,35634.81,36015.13,25486.66,29160.17,14223.77,8502.39
1389709.841,3518.34,14877.23,35647.02,36023.1,25479.27,29244.95,14426.81,8499.1
1389709.843,4609.39,15117.93,35636.52,36004.02,25438.12,29311.37,14712.38,8460.33
1389709.845,5300.14,15366.6,35604.2,35967.93,25387.29,29337.08,14970.21,8417.51
1389709.847,5303.34,15508.32,35576.49,35943.32,25355.06,29314.9,15095.14,8402.3
1389709.849,4441.31,15459.25,35559.23,35922.34,25354.48,29249.86,14985.9,8408.02
1389709.851,3047.47,15190.08,35560.9,35921.48,25389.67,29176.38,14642.53,8429.19
1389709.853,2106.43,14871.65,35589.7,35951.28,25439.79,29129.22,14300.06,8469.06
1389709.855,2286.24,14735.75,35626.08,35995.63,25468.64,29130.84,14183.81,8495.28
1389709.857,3193.05,14817.05,35646.54,36004.02,25466.83,29197.98,14333.25,8495.86
1389709.859,4249.81,15026.86,35649.59,35998.21,25443.51,29269.27,14606.43,8467.39
1389709.861,5153.56,15294.94,35634.47,35987.05,25402.6,29314.0,14886.81,8435.35
1389709.863,5383.78,15483.67,35608.44,35971.6,25363.4,29330.5,15077.4,8410.03
1389709.865,4838.51,15508.32,35581.31,35943.61,25346.85,29285.39,15070.73,8398.72
1389709.867,3520.68,15299.94,35568.67,35928.49,25373.84,29207.52,14782.57,8415.32
1389709.869,2325.2,14964.3,35579.35,35938.46,25420.1,29133.13,14394.09,8454.56
1389709.871,2108.62,14745.9,35619.45,35973.89,25463.06,29119.64,14180.95,8487.08
1389709.873,2869.8,14766.12,35653.88,35997.78,25475.89,29179.72,14251.57,8490.23
1389709.875,3884.84,14936.35,35656.03,36002.4,25452.28,29260.92,14490.7,8470.01
1389709.877,4901.17,15188.46,35632.33,35980.04,25409.13,29325.11,14790.54,8434.58
1389709.879,5371.52,15409.38,35598.09,35955.67,25370.51,29331.83,15024.47,8393.53
1389709.881,5103.49,15497.88,35568.62,35950.57,25346.81,29294.07,15087.65,8363.06
1389709.883,3984.4,15370.8,35551.36,35931.64,25353.43,29206.66,14890.1,8373.36
1389709.885,2642.58,15065.0,35568.86,35931.31,25402.5,29135.28,14526.42,8414.56
1389709.887,2070.81,14800.69,35613.49,35971.17,25455.86,29120.83,14248.56,8484.94
1389709.889,2562.57,14751.34,35645.39,36003.83,25476.89,29159.26,14225.29,8525.52
1389709.891,3528.02,14868.93,35643.15,35995.87,25456.72,29222.16,14403.49,8504.39
1389709.893,4571.92,15090.85,35622.17,35966.78,25412.75,29289.15,14689.4,8446.69
1389709.895,5278.73,15339.09,35596.42,35938.84,25370.74,29331.26,14971.59,8398.53
1389709.897,5260.47,15476.32,35568.48,35915.62,25346.28,29321.96,15100.77,8377.55
1389709.899,4436.26,15431.69,35552.12,35900.74,25348.05,29258.3,14991.71,8384.71
1389709.901,3056.0,15173.58,35555.51,35905.79,25385.62,29179.96,14663.51,8421.61
1389709.903,2154.35,14869.5,35593.08,35940.94,25439.41,29129.13,14327.48,8479.98
1389709.905,2312.14,14745.09,35635.43,35989.72,25469.83,29152.11,14206.84,8518.98
1389709.907,3205.92,14816.81,35642.29,36000.92,25456.96,29212.67,14335.97,8508.4
1389709.909,4217.58,15008.59,35627.75,35979.94,25425.63,29273.75,14590.79,8468.01
1389709.911,5112.46,15268.14,35611.63,35952.33,25385.57,29333.55,14892.87,8422.09
1389709.913,5328.37,15451.58,35581.35,35915.76,25350.24,29344.61,15082.31,8384.37
1389709.915,4811.38,15480.9,35564.09,35896.83,25342.18,29305.51,15070.87,8371.5
1389709.917,3517.91,15283.2,35558.37,35889.2,25359.35,29216.25,14797.07,8385.37
1389709.919,2363.25,14960.77,35576.54,35918.38,25399.69,29146.25,14428.05,8422.71
1389709.921,2145.58,14763.6,35612.64,35968.83,25440.46,29133.28,14221.81,8460.0
1389709.923,2882.72,14787.29,35638.96,36003.31,25456.62,29190.4,14287.38,8477.69
1389709.925,3884.94,14969.26,35650.07,36011.56,25446.75,29281.43,14529.37,8469.25
1389709.927,4874.33,15211.63,35632.04,35988.53,25412.04,29348.95,14826.2,8430.67
1389709.929,5332.47,15423.54,35598.66,35952.0,25368.07,29356.96,15053.89,8384.56
1389709.931,5058.62,15489.25,35559.85,35915.81,25337.22,29319.48,15101.24,8362.2
1389709.933,3985.45,15365.03,35533.38,35895.26,25335.74,29236.42,14904.17,8362.68
1389709.935,2673.58,15070.44,35560.71,35921.63,25391.3,29168.51,14549.3,8410.88
1389709.937,2116.25,14823.34,35611.97,35974.6,25448.37,29162.55,14283.42,8451.89
1389709.939,2579.64,14762.93,35644.68,36011.37,25466.64,29193.6,14249.56,8468.34
1389709.941,3539.51,14890.82,35645.2,36019.95,25455.43,29236.51,14430.95,8457.14
1389709.943,4540.11,15106.25,35628.51,35995.87,25420.62,29293.45,14714.48,8421.37
1389709.945,5252.98,15356.92,35603.15,35952.29,25383.28,29334.5,14996.58,8389.38
1389709.947,5217.79,15477.13,35569.2,35910.71,25355.01,29328.54,15114.36,8380.13
1389709.949,4440.93,15438.37,35549.55,35892.63,25346.52,29272.56,15007.97,8388.33
1389709.951,3073.26,15182.74,35557.56,35905.84,25370.93,29183.11,14665.8,8429.24
1389709.953,2210.52,14889.86,35588.41,35938.55,25414.9,29134.8,14341.21,8473.97
1389709.955,2318.91,14753.63,35623.27,35969.02,25452.09,29141.14,14220.72,8503.87
1389709.957,3217.75,14830.73,35633.52,35983.76,25456.1,29199.41,14353.56,8496.57
1389709.959,4194.69,15025.33,35635.05,35980.18,25441.55,29283.72,14605.95,8481.17
1389709.961,5098.39,15278.72,35611.78,35957.2,25398.69,29332.55,14894.15,8440.16
1389709.963,5280.64,15440.51,35579.97,35921.77,25362.16,29353.29,15074.68,8400.97
1389709.965,4807.47,15470.17,35565.76,35911.8,25350.48,29327.68,15066.67,8386.18
1389709.967,3528.02,15280.58,35569.82,35913.81,25367.26,29233.84,14799.64,8404.54
1389709.969,2431.01,14983.56,35601.81,35949.71,25411.04,29137.47,14449.22,8451.75
1389709.971,2193.07,14793.87,35654.98,36007.98,25471.17,29143.48,14251.62,8504.44
1389709.973,2935.65,14808.61,35677.29,36027.72,25483.28,29193.98,14303.54,8511.07
1389709.975,3862.24,14952.95,35660.22,36010.7,25448.66,29247.48,14511.97,8470.44
1389709.977,4837.66,15179.4,35619.45,35968.02,25395.78,29296.78,14790.58,8418.94
1389709.979,5269.39,15388.82,35580.21,35937.22,25360.02,29319.91,15018.37,8380.08
1389709.981,5040.36,15468.6,35552.32,35910.52,25340.51,29295.21,15079.5,8360.58
1389709.983,3982.35,15355.64,35540.82,35901.07,25350.29,29229.07,14899.45,8374.74
1389709.985,2719.35,15072.2,35564.47,35927.3,25395.54,29159.5,14556.36,8422.04
1389709.987,2145.53,14824.34,35605.39,35964.87,25445.66,29129.7,14285.61,8473.16
1389709.989,2600.86,14759.45,35632.09,35985.76,25463.06,29158.02,14234.02,8485.41
1389709.991,3522.35,14885.38,35640.29,36001.26,25450.95,29233.51,14409.93,8450.18
1389709.993,4527.66,15106.87,35630.8,36013.8,25423.39,29316.71,14697.93,8403.73
1389709.995,5215.03,15351.3,35606.53,35990.53,25383.9,29351.76,14972.93,8385.33
1389709.997,5190.75,15471.65,35582.5,35950.38,25355.96,29315.19,15079.93,8390.48
1389709.999,4425.29,15439.7,35572.1,35918.14,25352.86,29246.62,14981.89,8410.17
1389710.001,3095.96,15182.69,35578.06,35907.27,25380.76,29165.03,14650.63,8446.27
1389710.003,2241.66,14897.06,35611.06,35936.5,25425.58,29129.75,14324.09,8487.85
1389710.005,2362.25,14770.41,35657.41,35983.71,25462.06,29151.01,14214.57,8520.08
1389710.007,3229.09,14847.18,35670.57,36001.35,25464.25,29190.78,14342.79,8516.36
1389710.009,4182.53,15028.1,35663.51,36001.35,25452.47,29251.87,14580.2,8496.05
1389710.011,5052.71,15272.67,35623.17,35969.36,25406.7,29296.69,14866.26,8440.07
1389710.013,5228.9,15423.4,35572.06,35920.34,25359.16,29295.07,15033.39,8388.9
1389710.015,4763.89,15451.34,35541.73,35902.41,25338.51,29259.11,15021.9,8363.68
1389710.017,3511.57,15264.75,35541.06,35911.99,25363.64,29172.52,14763.64,8384.42
1389710.019,2436.07,14975.17,35565.91,35939.36,25410.61,29116.44,14430.33,8421.09
1389710.021,2185.63,14775.95,35606.48,35987.52,25453.86,29132.89,14228.54,8455.23
1389710.023,2917.48,14807.46,35642.53,36028.63,25467.45,29197.31,14286.47,8480.74
1389710.025,3832.29,14959.15,35650.97,36040.6,25456.43,29255.3,14508.92,8478.17
1389710.027,4802.75,15189.55,35628.66,36021.05,25413.56,29305.03,14791.87,8431.34
1389710.029,5224.18,15387.11,35598.33,35984.57,25377.42,29324.63,15010.45,8390.09
1389710.031,5022.1,15477.04,35580.59,35953.72,25365.64,29307.7,15075.49,8383.94
1389710.033,3971.05,15354.59,35556.13,35907.99,25362.35,29222.63,14881.76,8389.95
1389710.035,2725.22,15069.72,35558.75,35901.07,25390.29,29130.27,14523.13,8434.49
1389710.037,2131.61,14811.57,35591.27,35934.88,25438.17,29102.62,14248.33,8489.42
1389710.039,2613.83,14769.41,35627.8,35971.6,25465.01,29148.01,14225.63,8510.59
1389710.041,3501.51,14883.66,35636.1,35977.42,25449.37,29213.05,14404.97,8489.99
1389710.043,4496.67,15097.76,35622.74,35966.59,25417.47,29270.94,14676.81,8464.72
1389710.045,5138.68,15319.06,35583.88,35929.26,25369.74,29299.31,14935.64,8426.57
1389710.047,5153.08,15451.91,35556.65,35909.66,25344.14,29303.6,15070.3,8398.49
1389710.049,4392.0,15420.2,35548.74,35904.75,25348.0,29253.53,14982.89,8392.86
1389710.051,3109.98,15177.25,35553.98,35910.09,25378.37,29165.18,14665.41,8416.22
1389710.053,2225.54,14889.43,35579.83,35938.93,25421.34,29112.96,14338.92,8457.71
1389710.055,2358.82,14763.07,35614.16,35973.36,25446.18,29125.41,14211.61,8483.94
1389710.057,3192.52,14839.75,35635.76,35990.05,25447.99,29196.79,14346.74,8484.56
1389710.059,4162.46,15025.9,35635.71,35984.23,25426.58,29278.57,14597.66,8460.19
1389710.061,5010.8,15270.19,35620.12,35966.78,25391.87,29342.61,14884.9,8428.77
1389710.063,5241.59,15445.95,35597.9,35952.05,25367.84,29346.71,15067.34,8408.79
1389710.065,4769.28,15480.71,35586.41,35943.66,25364.31,29289.01,15062.14,8405.02
1389710.067,3579.66,15302.76,35590.37,35946.52,25381.95,29220.49,14812.04,8416.7
1389710.069,2481.99,15008.69,35617.21,35979.32,25424.29,29176.19,14472.92,8455.56
1389710.071,2261.93,14821.72,35660.37,36040.93,25474.98,29185.16,14276.27,8504.2
1389710.073,2945.19,14837.79,35680.25,36059.53,25490.72,29224.69,14330.87,8522.42
1389710.075,3871.11,14984.8,35673.48,36035.64,25470.16,29278.42,14544.44,8501.72
1389710.077,4804.8,15212.11,35650.35,36002.83,25432.4,29349.9,14822.68,8456.04
1389710.079,5244.11,15408.61,35616.83,35973.55,25393.78,29354.81,15040.83,8400.97
1389710.081,5015.33,15487.86,35590.22,35965.64,25379.47,29304.89,15096.24,8379.79
1389710.083,4015.26,15380.48,35582.36,35965.54,25394.82,29217.15,14910.84,8403.73
1389710.085,2771.04,15097.05,35591.94,35960.25,25431.35,29141.24,14564.8,8453.99
1389710.087,2213.0,14844.47,35621.89,35973.36,25471.26,29121.69,14295.87,8503.49
1389710.089,2646.68,14795.64,35649.97,35997.78,25490.57,29157.17,14262.63,8530.67
1389710.091,3532.89,14906.07,35648.11,35993.63,25473.88,29216.72,14430.1,8517.79
1389710.093,4476.07,15100.72,35623.46,35967.26,25429.78,29267.36,14686.25,8475.83
1389710.095,5135.25,15318.97,35589.99,35930.69,25379.57,29305.37,14947.94,8428.1
1389710.097,5132.49,15442.23,35560.18,35904.98,25347.28,29296.74,15069.87,8393.29
1389710.099,4392.43,15405.56,35548.41,35904.08,25349.33,29237.7,14966.01,8375.55
1389710.101,3124.76,15171.39,35563.23,35919.58,25389.77,29156.93,14656.12,8405.59
1389710.103,2265.69,14883.19,35592.51,35947.76,25433.88,29102.04,14327.96,8461.95
1389710.105,2382.8,14760.97,35622.89,35981.61,25459.48,29111.91,14208.94,8496.81
1389710.107,3206.87,14834.36,35634.33,35992.96,25459.1,29175.52,14342.45,8494.04
1389710.109,4155.35,15024.66,35639.58,35999.06,25442.98,29255.35,14601.09,8475.35
1389710.111,4991.48,15257.55,35620.03,35970.88,25403.65,29307.13,14877.94,8444.26
1389710.113,5200.63,15413.81,35583.36,35931.88,25360.25,29310.28,15042.69,8407.31
1389710.115,4733.32,15433.03,35560.18,35922.72,25342.75,29275.33,15029.0,8387.04
1389710.117,3553.68,15264.56,35561.38,35930.78,25364.07,29200.84,14779.33,8404.88
1389710.119,2471.54,14971.45,35586.7,35953.67,25409.27,29129.6,14433.67,8453.27
1389710.121,2242.04,14782.1,35622.98,35989.43,25451.42,29112.15,14229.68,8492.57
1389710.123,2912.28,14796.83,35651.35,36019.9,25466.49,29168.13,14275.7,8504.11
1389710.125,3831.34,14947.8,35644.39,36012.13,25442.08,29230.46,14488.32,8472.25
1389710.127,4744.01,15167.62,35620.98,35968.78,25401.55,29293.21,14766.5,8434.92
1389710.129,5195.67,15374.57,35591.56,35934.4,25370.03,29311.95,14990.76,8411.84
1389710.131,4972.08,15452.05,35571.87,35914.38,25361.73,29286.29,15054.32,8403.97
1389710.133,4010.39,15355.97,35566.62,35908.23,25372.56,29230.55,14898.59,8416.42
1389710.135,2769.61,15080.12,35583.07,35932.69,25418.95,29171.18,14558.7,8457.14
1389710.137,2236.08,14854.72,35632.28,35990.29,25480.23,29137.33,14302.68,8509.92
1389710.139,2641.96,14795.69,35659.51,36017.23,25497.44,29158.74,14261.53,8519.13
1389710.141,3533.27,14900.35,35652.07,36003.88,25469.21,29196.69,14408.83,8492.09
1389710.143,4459.81,15095.52,35636.72,35989.24,25433.83,29258.45,14662.46,8455.18
1389710.145,5126.14,15313.01,35600.43,35954.77,25383.95,29277.81,14916.09,8407.74
1389710.147,5092.91,15422.54,35565.29,35923.58,25353.43,29276.42,15035.63,8384.85
1389710.149,4399.68,15397.98,35556.23,35923.06,25354.34,29234.13,14958.38,8390.0
1389710.151,3127.15,15168.14,35569.91,35960.54,25395.35,29157.83,14659.36,8434.68
1389710.153,2300.83,14896.01,35597.61,36001.73,25443.84,29118.73,14349.56,8484.17
1389710.155,2383.61,14765.31,35630.37,36019.23,25477.22,29139.24,14224.34,8514.98
1389710.157,3223.28,14832.98,35638.43,35998.25,25464.11,29179.86,14334.68,8501.96
1389710.159,4124.45,15007.55,35637.05,35974.75,25442.75,29244.62,14571.57,8483.89
1389710.161,4969.36,15239.86,35614.83,35940.22,25398.73,29290.77,14846.14,8445.07
1389710.163,5151.75,15396.84,35580.83,35907.89,25359.35,29298.69,15018.13,8404.64
1389710.165,4731.46,15436.79,35565.43,35900.36,25352.62,29273.51,15022.28,8393.19
1389710.167,3540.09,15264.7,35560.76,35900.02,25369.79,29179.58,14773.32,8413.84
1389710.169,2482.61,14974.41,35579.35,35921.29,25407.51,29103.57,14428.24,8455.33
1389710.171,2233.31,14783.34,35615.35,35963.92,25448.52,29100.95,14226.49,8498.29
1389710.173,2933.6,14807.37,35645.06,36001.97,25463.49,29160.31,14282.28,8511.26
1389710.175,3823.23,14958.72,35645.16,36000.49,25445.42,29226.21,14491.85,8485.18
1389710.177,4740.05,15179.02,35624.17,35975.65,25409.99,29282.38,14764.74,8437.44
1389710.179,5159.43,15374.38,35586.46,35931.02,25374.7,29310.85,14988.14,8403.06
1389710.181,4959.82,15450.34,35556.85,35911.14,25358.58,29302.55,15052.7,8389.66
1389710.183,3990.84,15351.34,35548.17,35909.56,25370.98,29246.52,14886.43,8402.35
1389710.185,2789.69,15088.51,35576.54,35941.51,25422.24,29186.82,14559.8,8451.56
1389710.187,2235.7,14854.72,35614.02,35984.43,25472.12,29141.33,14291.81,8498.57
1389710.189,2651.26,14795.97,35644.11,36022.1,25490.43,29149.82,14249.52,8516.5
1389710.191,3529.6,14908.7,35646.87,36024.53,25471.31,29202.18,14427.62,8502.63
1389710.193,4455.52,15105.34,35632.52,36008.17,25430.49,29269.84,14685.97,8460.9
1389710.195,5105.88,15329.51,35602.86,35973.36,25383.9,29294.11,14927.91,8407.64
1389710.197,5094.24,15445.62,35578.26,35939.08,25362.3,29285.2,15037.06,8382.51
1389710.199,4406.79,15421.11,35567.05,35925.44,25363.02,29246.57,14960.72,8393.72
1389710.201,3153.23,15184.21,35575.58,35926.87,25399.02,29165.22,14666.27,8438.02
1389710.203,2325.63,14912.51,35606.44,35958.77,25445.89,29105.38,14349.37,8492.28
1389710.205,2404.93,14775.52,35634.81,35982.28,25469.93,29129.17,14221.38,8517.27
1389710.207,3236.58,14854.72,35646.44,35991.48,25464.87,29187.64,14345.6,8499.29
1389710.209,4128.17,15020.32,35638.96,35980.52,25446.47,29248.91,14575.01,8477.88
1389710.211,4964.4,15242.82,35611.54,35953.72,25402.6,29286.2,14835.88,8437.73
1389710.213,5147.31,15396.79,35574.44,35919.96,25364.12,29289.77,15005.4,8387.76
1389710.215,4723.93,15428.93,35548.26,35911.52,25343.42,29251.01,14999.44,8366.54
1389710.217,3546.24,15253.83,35549.55,35917.76,25361.35,29174.62,14754.68,8389.04
1389710.219,2513.22,14983.08,35588.08,35964.83,25410.7,29120.97,14433.29,8427.24
1389710.221,2252.34,14791.82,35640.96,36012.84,25462.54,29106.53,14238.07,8480.98
1389710.223,2945.19,14814.47,35666.52,36029.87,25476.08,29160.55,14292.19,8506.11
1389710.225,3809.98,14951.47,35650.88,36004.69,25453.95,29231.93,14493.51,8490.71
1389710.227,4748.34,15176.97,35625.18,35976.46,25421.38,29301.46,14767.22,8458.66
1389710.229,5169.39,15373.37,35598.19,35940.75,25389.39,29334.69,14989.04,8425.14
1389710.231,4989.39,15461.73,35574.35,35917.43,25372.7,29333.55,15063.43,8413.94
1389710.233,4006.15,15359.21,35571.72,35912.14,25394.16,29260.78,14900.02,8438.11
1389710.235,2800.27,15085.65,35590.03,35929.59,25437.5,29147.68,14564.95,8476.93
1389710.237,2201.22,14831.93,35618.79,35972.98,25465.3,29100.23,14298.3,8506.11
1389710.239,2632.38,14768.94,35634.95,36003.78,25461.25,29119.69,14257.05,8508.44
1389710.241,3492.83,14874.84,35634.24,36006.84,25447.04,29187.4,14415.6,8486.22
1389710.243,4448.75,15079.79,35616.02,35989.43,25420.91,29248.86,14651.59,8452.13
1389710.245,5084.61,15299.04,35582.4,35947.14,25383.52,29284.91,14901.35,8415.84
1389710.247,5115.13,15429.59,35558.28,35918.05,25361.78,29289.2,15038.83,8397.63
1389710.249,4394.67,15399.74,35543.59,35898.64,25362.16,29247.1,14961.39,8399.39
1389710.251,3148.7,15169.72,35554.56,35904.6,25397.49,29174.33,14667.27,8434.58
1389710.253,2262.35,14880.8,35586.89,35933.78,25447.18,29122.17,14346.32,8484.22
1389710.255,2373.17,14752.77,35625.51,35980.23,25477.03,29139.86,14217.66,8507.44
1389710.2572,3195.43,14823.72,35643.49,35997.92,25471.74,29208.0,14334.97,8495.47
1389710.2592,4140.81,15009.83,35636.1,35990.58,25443.22,29261.88,14574.24,8473.3
1389710.2612,4983.09,15259.41,35619.88,35976.7,25405.74,29311.61,14861.49,8443.69
1389710.2632,5212.55,15427.16,35584.6,35950.24,25368.36,29314.86,15034.73,8405.88
1389710.2652,4768.75,15464.45,35567.38,35940.94,25354.58,29295.35,15037.59,8384.56
1389710.2672,3596.45,15291.64,35573.39,35956.29,25375.18,29223.35,14800.69,8405.45
1389710.2692,2477.74,14986.37,35596.18,35974.22,25423.05,29136.57,14450.98,8451.27
1389710.2712,2223.73,14781.62,35639.0,36004.55,25473.26,29137.38,14229.82,8503.87
1389710.2732,2890.4,14789.44,35656.89,36012.37,25484.04,29201.32,14272.12,8523.85
1389710.2752,3835.01,14954.62,35666.37,36009.7,25476.08,29297.5,14505.67,8518.74
1389710.2772,4783.06,15190.27,35649.21,35985.19,25438.93,29351.19,14796.93,8472.59
1389710.2792,5234.91,15378.05,35596.37,35935.6,25380.42,29313.71,15001.49,8412.98
1389710.2812,5006.65,15445.62,35552.7,35899.45,25344.57,29255.3,15040.59,8378.41
1389710.2832,4020.83,15343.95,35542.4,35901.36,25352.81,29181.01,14872.22,8395.58
1389710.2852,2752.83,15065.48,35560.9,35924.34,25393.49,29106.91,14535.91,8441.35
1389710.2872,2159.88,14808.56,35599.05,35970.5,25446.8,29093.79,14255.57,8483.36
1389710.289,2579.4,14746.72,35626.22,36004.98,25471.93,29145.91,14206.7,8493.95
1389710.291,3495.69,14866.07,35630.37,36016.09,25464.01,29224.59,14378.98,8486.7
1389710.293,4475.26,15087.03,35617.17,36003.64,25429.87,29297.26,14653.49,8469.3
1389710.295,5164.91,15322.73,35586.6,35970.41,25380.81,29310.75,14911.56,8425.67
1389710.297,5187.8,15462.4,35570.1,35952.48,25359.2,29310.23,15057.99,8391.38
1389710.299,4458.71,15433.5,35562.47,35940.75,25363.73,29244.57,14976.5,8391.62
1389710.301,3150.42,15190.27,35570.91,35940.27,25384.62,29152.44,14665.8,8424.71
1389710.303,2237.94,14889.39,35603.77,35973.93,25428.54,29097.8,14319.56,8479.55
1389710.305,2321.29,14752.68,35635.9,36019.14,25469.54,29115.97,14182.04,8521.13
1389710.307,3172.78,14824.58,35646.82,36028.34,25477.98,29188.3,14314.84,8530.43
1389710.309,4138.9,15009.07,35634.47,35997.63,25450.66,29249.58,14557.94,8501.63
1389710.311,5023.62,15259.6,35615.93,35959.11,25414.99,29309.04,14854.24,8463.29
1389710.313,5272.58,15436.08,35578.68,35913.9,25372.46,29319.72,15046.17,8412.6
1389710.315,4800.13,15455.68,35550.41,35888.1,25350.05,29275.52,15040.35,8368.45
1389710.317,3586.44,15274.05,35552.46,35899.26,25372.7,29192.98,14787.72,8387.61
1389710.319,2428.87,14960.82,35580.45,35927.35,25421.43,29124.98,14428.71,8456.61
1389710.321,2146.24,14745.62,35613.73,35966.69,25459.34,29115.01,14203.45,8510.64
1389710.323,2823.97,14752.34,35631.9,35996.73,25470.07,29162.93,14240.93,8522.46
1389710.325,3798.68,14925.2,35633.0,35990.1,25454.86,29225.88,14461.52,8502.25
1389710.327,4769.85,15170.0,35618.26,35965.88,25422.48,29294.54,14757.11,8467.06
1389710.329,5277.11,15392.11,35580.64,35931.78,25382.66,29324.73,15001.58,8424.57
1389710.331,5060.15,15474.85,35544.92,35902.12,25353.91,29305.08,15071.58,8402.63
1389710.333,4058.5,15371.37,35534.05,35902.08,25357.01,29233.89,14900.5,8409.12
1389710.335,2725.98,15067.48,35552.89,35927.63,25394.59,29153.73,14535.81,8444.21
1389710.337,2118.73,14810.09,35604.96,35994.68,25451.81,29160.22,14255.24,8493.42
1389710.339,2516.37,14744.43,35643.06,36070.64,25481.61,29193.83,14212.75,8494.71
1389710.341,3484.2,14877.46,35652.78,36093.91,25470.21,29238.66,14399.58,8459.81
1389710.343,4463.48,15093.14,35634.19,36048.27,25432.16,29261.97,14662.6,8431.39
1389710.345,5199.62,15339.76,35595.23,35974.79,25379.9,29285.43,14932.92,8412.89
1389710.347,5194.0,15466.79,35554.99,35901.22,25348.57,29291.78,15071.44,8407.16
1389710.349,4491.14,15456.77,35551.74,35890.01,25361.64,29259.02,15014.46,8431.82
1389710.351,3128.82,15207.67,35565.57,35899.12,25404.03,29181.05,14699.99,8471.68
1389710.353,2197.46,14888.57,35591.27,35930.92,25445.42,29111.58,14342.45,8507.06
1389710.355,2233.89,14726.78,35625.99,35973.7,25480.99,29124.07,14193.49,8525.42
1389710.357,3132.82,14806.7,35646.82,35996.39,25478.65,29200.46,14319.23,8514.6
1389710.359,4112.15,14995.34,35637.91,35987.1,25443.89,29268.65,14561.27,8483.08
1389710.361,5044.41,15250.16,35602.38,35959.25,25388.77,29320.72,14835.98,8435.39
1389710.363,5277.59,15433.5,35567.43,35921.53,25351.62,29328.25,15032.72,8406.4
1389710.365,4836.04,15473.89,35547.5,35899.5,25336.89,29263.21,15036.68,8395.63
1389710.367,3573.66,15290.36,35540.78,35892.3,25355.29,29169.18,14782.67,8417.51
1389710.369,2407.98,14978.94,35563.95,35920.81,25404.03,29116.73,14430.05,8468.72
1389710.371,2083.68,14743.28,35602.29,35964.16,25453.95,29109.24,14196.35,8503.06
1389710.373,2797.79,14741.71,35627.18,35993.87,25471.79,29153.88,14232.26,8508.59
1389710.375,3783.13,14916.85,35633.38,36000.26,25464.68,29231.6,14463.43,8496.95
1389710.377,4808.14,15173.01,35614.69,35983.28,25425.77,29303.32,14766.5,8461.86
1389710.379,5308.77,15401.94,35576.11,35937.6,25377.18,29318.24,15011.5,8414.22
1389710.381,5095.39,15485.38,35541.01,35907.56,25343.37,29293.87,15082.93,8376.22
1389710.383,4050.35,15367.8,35519.79,35891.97,25342.18,29216.91,14905.36,8375.5
1389710.385,2697.37,15052.22,35533.29,35905.6,25388.2,29137.28,14533.09,8414.65
1389710.387,2037.57,14778.9,35577.3,35957.05,25447.32,29111.91,14240.22,8464.86
1389710.389,2456.76,14712.53,35623.46,36005.07,25485.71,29150.78,14192.34,8496.38
1389710.391,3439.47,14845.66,35636.19,36004.6,25466.83,29217.06,14370.3,8478.55
1389710.393,4469.87,15075.21,35619.07,35987.48,25416.04,29286.77,14656.12,8436.63
1389710.395,5249.45,15350.96,35594.75,35955.0,25368.69,29337.93,14954.09,8406.54
1389710.397,5278.92,15492.63,35565.19,35920.58,25336.17,29339.6,15097.62,8389.33
1389710.399,4530.1,15456.34,35541.16,35904.65,25329.5,29267.08,15011.79,8389.09
1389710.401,3111.7,15179.21,35543.88,35906.94,25373.37,29161.98,14672.42,8430.29
1389710.403,2139.52,14854.86,35572.96,35933.12,25429.39,29107.38,14322.28,8485.51
1389710.405,2180.96,14690.93,35611.92,35964.4,25466.02,29133.04,14166.45,8519.17
1389710.407,3109.65,14781.86,35634.38,35989.43,25471.5,29214.81,14295.68,8514.17
1389710.409,4120.97,14983.08,35628.04,35986.14,25448.09,29261.78,14552.02,8475.5
1389710.411,5102.21,15271.09,35609.15,35967.07,25406.41,29286.25,14863.87,8440.02
1389710.413,5364.08,15467.55,35574.96,35930.83,25365.69,29297.45,15070.39,8420.8
1389710.415,4917.29,15506.41,35545.11,35917.24,25337.89,29261.16,15070.87,8394.62
1389710.417,3588.63,15291.03,35535.63,35905.84,25346.52,29171.9,14792.01,8383.75
1389710.419,2356.58,14945.41,35557.18,35926.06,25394.63,29101.04,14405.01,8416.32
1389710.421,1976.35,14693.55,35597.47,35970.17,25440.55,29092.98,14156.34,8469.11
1389710.423,2725.79,14705.71,35632.04,36011.99,25454.67,29159.55,14205.03,8489.42
1389710.425,3735.26,14873.94,35633.38,36012.08,25435.12,29224.78,14439.82,8463.0
1389710.427,4827.12,15140.96,35610.2,35991.48,25384.91,29271.27,14745.62,8409.98
1389710.429,5365.37,15388.68,35567.53,35935.93,25335.46,29297.93,15004.26,8371.78
1389710.431,5195.62,15503.17,35530.19,35896.21,25313.0,29293.4,15095.86,8354.81
1389710.433,4097.99,15393.55,35516.22,35874.28,25330.45,29231.31,14932.92,8385.37
1389710.435,2684.64,15073.68,35542.59,35893.06,25387.1,29156.59,14555.46,8448.51
1389710.437,1934.91,14758.92,35588.98,35940.22,25452.24,29110.86,14223.96,8496.57
1389710.439,2370.6,14673.52,35633.52,35990.19,25480.42,29131.7,14147.86,8517.65
1389710.441,3382.97,14810.75,35646.54,36017.8,25473.55,29214.48,14356.23,8519.36
1389710.443,4511.21,15070.15,35630.14,36017.14,25441.89,29283.77,14668.08,8487.94
1389710.445,5321.65,15355.26,35586.55,35978.94,25386.81,29329.4,14982.94,8433.96
1389710.447,5390.41,15520.91,35540.54,35922.01,25337.99,29320.62,15138.82,8375.69
1389710.449,4594.09,15490.15,35510.78,35886.48,25324.54,29263.64,15040.83,8360.1
1389710.451,3104.97,15194.94,35512.5,35874.08,25353.39,29158.55,14669.47,8394.62
1389710.453,1995.28,14821.91,35547.88,35895.88,25409.65,29102.76,14284.28,8457.57
1389710.455,2033.71,14645.39,35602.14,35961.2,25458.91,29124.88,14123.11,8516.79
1389710.457,2979.85,14721.68,35622.98,36003.59,25457.81,29182.82,14247.8,8525.13
1389710.459,4111.48,14949.13,35612.35,35985.28,25427.25,29232.17,14524.84,8490.75
1389710.461,5155.04,15257.07,35580.5,35932.12,25376.75,29271.65,14857.01,8430.53
1389710.463,5496.55,15488.53,35540.54,35882.24,25330.98,29292.16,15084.03,8374.17
1389710.465,5011.23,15539.36,35513.26,35854.01,25307.99,29241.09,15092.76,8350.85
1389710.467,3609.75,15325.83,35514.65,35861.21,25331.74,29160.03,14813.81,8380.6
1389710.469,2216.24,14940.6,35545.88,35891.49,25395.54,29088.02,14398.43,8442.07
1389710.471,1823.71,14665.32,35597.61,35948.81,25454.29,29094.22,14134.84,8505.58
1389710.473,2588.37,14666.42,35628.7,35988.96,25471.02,29169.56,14182.66,8526.04
1389710.475,3716.95,14860.15,35626.7,35987.1,25448.23,29241.99,14428.62,8498.48
1389710.477,4897.79,15176.58,35612.83,35974.75,25413.42,29305.56,14772.94,8457.23
1389710.479,5528.98,15461.59,35574.01,35939.32,25364.45,29329.64,15070.87,8407.07
1389710.4811,5338.53,15582.75,35535.58,35904.75,25330.45,29298.69,15173.77,8373.64
1389710.4831,4173.42,15446.28,35514.69,35884.15,25326.35,29217.96,14972.83,8373.07
1389710.4851,2589.99,15066.82,35525.61,35892.01,25366.88,29127.84,14534.81,8404.54
1389710.4871,1780.08,14716.25,35582.36,35939.6,25437.6,29093.08,14164.78,8461.57
1389710.4891,2219.96,14619.02,35629.09,35986.71,25477.13,29131.23,14103.37,8494.14
1389710.4911,3334.38,14766.17,35638.86,36002.74,25463.44,29209.28,14316.32,8483.98
1389710.4931,4538.68,15051.18,35626.94,35992.25,25420.81,29281.52,14649.73,8450.41
1389710.4951,5445.43,15372.42,35594.75,35963.73,25369.41,29328.54,14978.41,8405.11
1389710.4971,5523.68,15564.44,35555.27,35922.96,25327.11,29328.49,15155.56,8375.26
1389710.4991,4679.25,15525.34,35521.8,35884.19,25312.81,29260.11,15067.53,8370.26
1389710.5011,3084.14,15215.54,35524.09,35873.23,25353.24,29156.35,14694.88,8406.78
1389710.5031,1903.11,14811.18,35560.85,35898.88,25418.67,29077.1,14272.26,8462.57
1389710.5051,1920.18,14606.67,35611.44,35941.27,25471.59,29099.37,14093.83,8518.84
1389710.5071,2939.32,14686.78,35643.49,35968.31,25481.27,29183.11,14233.5,8527.71
1389710.5091,4123.88,14935.83,35633.57,35971.6,25442.17,29254.25,14528.94,8486.99
1389710.5111,5214.6,15263.37,35598.43,35948.66,25382.0,29304.89,14873.94,8426.24
1389710.5131,5576.28,15509.75,35552.03,35907.65,25331.79,29311.95,15113.88,8373.45
1389710.5151,5072.64,15559.15,35519.27,35876.56,25309.57,29271.03,15128.47,8350.18
1389710.5171,3626.68,15338.57,35510.73,35862.59,25331.12,29186.92,14845.28,8372.36
1389710.5191,2176.43,14925.86,35532.62,35883.34,25391.06,29108.15,14405.25,8424.81
1389710.5211,1762.82,14630.84,35583.83,35932.93,25447.99,29096.8,14115.76,8473.06
1389710.5231,2549.31,14632.32,35627.46,35979.42,25473.74,29169.52,14154.01,8503.39
1389710.5251,3730.25,14852.62,35634.43,35998.63,25459.05,29245.33,14418.99,8479.98
1389710.5271,4917.81,15170.77,35612.64,35995.63,25408.03,29316.67,14771.7,8419.9
1389710.5291,5579.76,15479.52,35576.63,35971.69,25357.58,29348.09,15085.56,8376.55
1389710.5311,5349.35,15586.76,35525.85,35914.38,25316.86,29299.41,15172.67,8345.8
1389710.5331,4182.96,15452.2,35498.24,35871.32,25314.52,29201.65,14972.64,8333.35
1389710.5351,2572.82,15074.49,35519.27,35881.86,25367.26,29116.35,14549.21,8393.67
1389710.5371,1766.01,14720.2,35569.48,35927.78,25425.58,29088.45,14191.44,8466.39
1389710.5391,2186.16,14614.01,35622.51,35978.46,25466.25,29132.51,14115.48,8494.19
1389710.5411,3336.76,14769.7,35638.81,35991.96,25458.91,29215.48,14327.15,8494.28
1389710.5431,4518.41,15049.17,35626.94,35976.46,25421.53,29295.73,14651.2,8472.73
1389710.5451,5441.57,15368.89,35579.16,35934.45,25359.25,29328.78,14981.99,8415.51
1389710.5471,5473.38,15542.65,35526.95,35885.34,25311.28,29310.52,15146.16,8374.88
1389710.5491,4676.72,15515.9,35501.01,35859.06,25302.56,29255.3,15068.91,8368.68
1389710.5511,3070.69,15203.1,35507.64,35860.07,25346.09,29152.06,14693.31,8410.41
1389710.5531,1915.5,14804.65,35541.44,35889.34,25403.69,29086.64,14275.22,8460.9
1389710.5551,1902.87,14602.47,35596.99,35948.42,25459.86,29116.68,14092.83,8511.21
1389710.5571,2954.29,14699.75,35634.09,35988.62,25474.36,29196.65,14241.74,8523.18
1389710.5591,4106.47,14943.79,35629.75,35985.28,25440.36,29267.12,14539.77,8485.56
1389710.5611,5225.56,15277.05,35602.86,35960.82,25386.57,29334.21,14889.43,8432.77
1389710.5631,5536.94,15501.79,35543.88,35901.6,25322.25,29336.27,15110.97,8367.92
1389710.5651,5062.72,15552.47,35503.34,35871.51,25289.78,29282.43,15126.37,8338.6
1389710.5671,3620.96,15331.56,35497.19,35856.92,25315.43,29185.49,14844.85,8361.63
1389710.5691,2219.25,14937.74,35530.57,35872.89,25377.47,29114.58,14431.72,8423.09
1389710.5711,1781.89,14648.25,35581.69,35922.87,25438.98,29126.46,14140.8,8477.88
1389710.5731,2570.77,14644.62,35624.7,35977.22,25464.92,29206.42,14176.18,8497.62
1389710.5751,3719.09,14855.43,35635.62,35994.87,25449.23,29272.75,14447.36,8483.65
1389710.5771,4903.89,15160.47,35609.44,35983.28,25391.77,29306.46,14786.25,8433.3
1389710.5791,5517.15,15440.18,35562.66,35948.61,25328.78,29312.61,15054.42,8368.49
1389710.5811,5328.27,15558.15,35522.66,35922.91,25298.88,29294.21,15142.16,8311.75
1389710.5831,4179.81,15438.32,35498.58,35895.02,25301.89,29206.09,14959.05,8306.08
1389710.5851,2605.01,15063.34,35507.64,35884.77,25351.58,29106.86,14543.25,8382.13
1389710.5871,1793.05,14716.44,35555.89,35920.67,25424.25,29082.87,14191.82,8469.39
1389710.5891,2197.08,14603.33,35593.7,35952.1,25462.34,29124.88,14122.73,8506.39
1389710.5911,3315.5,14755.06,35608.58,35955.67,25450.47,29209.09,14336.11,8500.43
1389710.5931,4482.51,15025.0,35598.43,35944.08,25407.65,29257.92,14640.05,8465.43
1389710.5951,5392.46,15348.63,35565.76,35924.92,25359.06,29307.66,14947.99,8415.37
1389710.5971,5466.84,15535.79,35532.29,35894.4,25331.64,29328.16,15134.05,8385.23
1389710.5991,4682.68,15508.7,35505.97,35866.07,25318.43,29264.02,15068.87,8369.07
1389710.6011,3097.68,15190.36,35501.06,35842.38,25342.71,29153.35,14690.11,8392.72
1389710.6031,1963.52,14813.57,35531.19,35876.52,25401.02,29078.34,14278.22,8447.08
1389710.6051,1934.72,14605.95,35580.54,35933.98,25450.85,29101.76,14088.39,8490.52
1389710.6071,2938.03,14685.92,35605.01,35959.96,25452.9,29166.84,14218.67,8489.99
1389710.6091,4063.94,14917.23,35600.86,35955.48,25423.91,29238.23,14504.43,8461.86
1389710.6111,5163.62,15243.1,35575.01,35938.65,25372.89,29303.84,14855.2,8408.5
1389710.6131,5488.06,15476.18,35536.91,35910.37,25331.17,29319.96,15096.95,8370.02
1389710.6151,5048.66,15535.98,35502.1,35882.43,25309.61,29267.93,15119.22,8353.14
1389710.6171,3624.58,15310.34,35487.94,35864.02,25322.15,29166.75,14828.68,8358.43
1389710.6191,2259.25,14928.77,35513.31,35876.71,25370.27,29086.35,14400.25,8401.35
1389710.6211,1813.22,14648.82,35568.43,35932.93,25428.11,29082.02,14126.11,8463.81
1389710.6231,2586.27,14652.16,35610.97,35991.48,25446.37,29147.58,14162.35,8493.04
1389710.6251,3679.61,14842.89,35610.63,36004.36,25425.58,29215.86,14404.35,8473.35
1389710.6271,4850.1,15144.87,35590.94,35985.86,25380.33,29283.19,14744.71,8415.7
1389710.6291,5439.85,15412.24,35550.88,35928.44,25327.16,29311.37,15025.52,8371.07
1389710.6311,5285.74,15539.6,35517.65,35893.83,25297.74,29298.31,15133.43,8348.7
1389710.6331,4180.96,15430.98,35509.26,35885.15,25309.23,29235.56,14968.68,8348.94
1389710.6351,2689.08,15092.09,35531.1,35898.79,25365.31,29145.91,14571.62,8405.21
1389710.6371,1866.2,14756.82,35575.58,35934.31,25435.93,29115.35,14222.67,8476.31
1389710.6391,2282.57,14662.12,35618.26,35980.99,25474.12,29145.05,14143.13,8509.26
1389710.6411,3329.18,14791.54,35624.17,35987.76,25461.87,29216.44,14331.49,8505.54
1389710.6431,4473.16,15046.98,35605.63,35968.64,25422.05,29282.62,14632.66,8477.97
1389710.6451,5322.98,15341.43,35569.72,35933.45,25366.83,29322.53,14960.72,8429.67
1389710.6471,5411.34,15509.08,35528.85,35892.35,25322.06,29320.39,15136.15,8385.37
1389710.6491,4627.09,15475.08,35495.76,35855.73,25303.75,29240.8,15045.93,8364.73
1389710.6511,3163.48,15205.62,35513.36,35869.7,25351.67,29162.89,14706.42,8404.88
1389710.6531,2047.35,14848.52,35552.6,35906.37,25413.61,29111.25,14322.14,8459.76
1389710.6551,2042.87,14655.16,35592.85,35953.76,25454.43,29107.19,14134.55,8498.77
1389710.6571,2970.89,14725.5,35612.06,35978.94,25459.48,29165.7,14252.47,8501.44
1389710.6591,4072.91,14945.6,35611.49,35980.23,25436.31,29230.41,14531.18,8472.49
1389710.6611,5088.95,15232.76,35575.54,35943.08,25381.0,29283.62,14852.43,8413.6
1389710.6631,5414.82,15444.66,35529.52,35899.69,25329.45,29296.93,15059.19,8364.68
1389710.6651,4963.45,15493.3,35500.15,35872.03,25298.46,29263.12,15075.07,8342.93
1389710.6671,3660.15,15305.66,35505.01,35874.18,25322.34,29188.54,14817.67,8369.97
1389710.6691,2338.27,14956.43,35540.06,35903.89,25386.05,29126.7,14427.95,8428.86
1389710.6711,1939.49,14700.84,35597.04,35955.96,25454.62,29122.79,14167.02,8492.33
1389710.6731,2651.21,14705.8,35636.57,36003.55,25477.08,29182.49,14205.03,8512.21
1389710.6751,3706.6,14876.75,35630.75,36011.22,25447.23,29241.09,14430.19,8483.36
1389710.6771,4784.06,15141.82,35599.67,35992.15,25397.26,29308.56,14736.46,8426.95
1389710.6791,5375.91,15392.93,35561.57,35955.48,25346.04,29355.43,15016.46,8366.35
1389710.6811,5206.44,15499.26,35530.67,35923.44,25309.8,29325.06,15116.98,8337.45
1389710.6831,4158.07,15388.59,35514.22,35897.93,25307.56,29197.74,14944.75,8337.16
1389710.6851,2720.17,15071.87,35529.95,35890.77,25350.19,29101.76,14563.09,8385.85
1389710.6871,1968.29,14764.55,35570.2,35931.21,25411.61,29080.35,14239.31,8453.99
1389710.6891,2339.7,14672.33,35606.67,35973.51,25447.04,29111.67,14146.23,8494.04
1389710.6911,3343.68,14795.02,35610.49,35975.46,25443.37,29189.64,14317.7,8492.42
1389710.6931,4419.52,15032.1,35596.04,35965.02,25410.23,29263.45,14608.67,8455.56
1389710.6951,5234.1,15298.27,35556.23,35918.53,25359.4,29297.78,14904.69,8408.17
1389710.6971,5310.49,15464.78,35525.61,35880.86,25331.74,29303.7,15069.92,8389.09
1389710.6991,4593.09,15448.91,35514.41,35865.5,25334.65,29252.91,15007.4,8398.58
1389710.7011,3197.15,15197.9,35530.09,35877.85,25372.6,29156.74,14681.29,8429.86
1389710.7031,2146.05,14863.45,35569.72,35914.14,25427.82,29105.95,14318.04,8481.41
1389710.7051,2128.46,14683.39,35607.96,35951.09,25457.58,29111.58,14148.28,8508.87
1389710.7071,3016.47,14749.15,35629.94,35978.75,25462.54,29179.96,14267.45,8507.35
1389710.7091,4064.85,14955.95,35621.08,35975.89,25437.79,29235.08,14530.23,8484.03
1389710.7111,5024.43,15218.88,35585.84,35939.98,25381.28,29280.81,14832.83,8433.87
1389710.7131,5359.17,15430.98,35545.4,35899.12,25338.46,29301.89,15052.89,8395.24
1389710.7151,4927.21,15480.81,35519.51,35876.71,25322.82,29267.03,15072.54,8378.65
1389710.7171,3692.2,15310.19,35517.12,35884.19,25344.52,29185.82,14828.83,8393.67
1389710.7191,2401.88,14967.49,35537.87,35907.42,25393.97,29106.33,14434.1,8431.82
1389710.7211,2003.29,14712.1,35571.15,35948.95,25434.21,29084.97,14161.25,8468.34
1389710.7231,2659.51,14700.37,35601.19,35978.08,25452.09,29137.95,14183.86,8486.99
1389710.7251,3700.92,14885.24,35610.82,35990.58,25440.12,29220.58,14422.8,8475.21
1389710.7271,4740.14,15148.69,35601.33,35981.8,25408.75,29295.92,14740.71,8446.22
1389710.7291,5329.47,15387.92,35560.52,35935.64,25354.77,29319.39,15002.68,8389.47
1389710.7311,5143.74,15479.23,35522.51,35892.54,25316.53,29295.02,15090.94,8350.18
1389710.7331,4167.94,15383.63,35509.4,35876.52,25315.19,29216.29,14931.16,8344.7
1389710.7351,2764.13,15077.4,35530.71,35892.16,25360.4,29130.99,14560.13,8384.04
1389710.7371,2031.85,14775.28,35568.05,35923.77,25409.84,29099.47,14224.1,8436.97
1389710.7391,2348.57,14671.38,35600.71,35957.2,25437.12,29119.78,14137.7,8476.02
1389710.7411,3355.79,14806.18,35619.64,35974.55,25437.26,29183.92,14323.67,8482.08
1389710.7431,4385.57,15034.01,35604.77,35955.58,25404.46,29255.68,14610.44,8450.8
1389710.7451,5226.66,15311.2,35571.63,35922.39,25359.4,29306.84,14920.43,8404.11
1389710.7471,5281.12,15466.74,35534.62,35886.1,25331.21,29311.42,15087.8,8374.74
1389710.7491,4611.68,15454.1,35511.4,35870.13,25329.83,29251.63,15024.85,8378.17
1389710.7511,3213.36,15199.52,35519.94,35871.99,25364.59,29163.03,14699.94,8414.98
1389710.7531,2175.52,14867.69,35551.84,35903.51,25414.04,29110.58,14331.25,8461.91
1389710.7551,2108.76,14680.39,35594.42,35944.85,25452.71,29113.34,14148.33,8495.86
1389710.7571,3008.51,14745.14,35613.92,35969.17,25452.57,29175.33,14258.1,8493.76
1389710.7591,4042.01,14969.26,35625.03,35981.04,25440.22,29272.08,14539.2,8487.18
1389710.7611,5050.33,15251.45,35606.05,35967.31,25396.16,29342.23,14861.63,8445.65
1389710.7631,5358.41,15447.43,35554.7,35918.53,25341.18,29345.99,15069.68,8386.28
1389710.7651,4965.59,15496.64,35519.03,35889.11,25319.48,29299.64,15086.03,8363.96
1389710.7671,3704.12,15316.06,35507.64,35878.95,25332.74,29218.34,14829.35,8383.28
1389710.7691,2429.34,14978.22,35535.29,35911.04,25386.29,29150.3,14434.72,8437.54
1389710.7711,1976.49,14715.24,35572.01,35947.99,25427.58,29104.52,14158.97,8476.45
1389710.7731,2620.17,14690.21,35599.14,35977.7,25437.64,29130.75,14170.7,8487.65
1389710.7751,3646.66,14859.63,35603.77,35974.27,25423.53,29215.29,14405.97,8467.48
1389710.7771,4747.49,15130.71,35589.27,35964.64,25381.0,29275.8,14732.46,8423.23
1389710.7791,5402.42,15413.33,35562.23,35951.71,25333.93,29297.26,15032.34,8378.79
1389710.7811,5297.04,15551.09,35534.39,35920.05,25310.28,29280.57,15138.91,8357.05
1389710.7831,4275.13,15471.36,35526.9,35902.55,25324.06,29224.54,14984.42,8362.2
1389710.7851,2745.44,15121.18,35541.35,35909.04,25375.46,29133.04,14590.69,8408.55
1389710.7871,1877.74,14762.88,35573.39,35935.36,25432.64,29076.01,14223.86,8465.82
1389710.7891,2198.89,14636.23,35618.79,35983.95,25471.02,29111.34,14114.67,8511.88
1389710.7911,3286.08,14774.99,35633.09,35996.49,25464.2,29195.55,14295.29,8507.82
1389710.7931,4431.82,15030.24,35609.34,35974.22,25415.28,29258.16,14604.0,8467.77
1389710.7951,5366.14,15353.25,35571.2,35934.45,25355.2,29305.13,14944.13,8417.75
1389710.7971,5457.78,15545.8,35537.68,35900.41,25322.92,29314.43,15130.52,8390.09
1389710.7991,4718.69,15528.73,35511.45,35872.65,25311.66,29254.49,15054.85,8379.41
1389710.8011,3159.71,15226.89,35512.36,35866.55,25348.48,29151.87,14696.27,8410.12
1389710.8031,2001.0,14843.13,35545.16,35893.59,25406.98,29089.45,14294.82,8460.57
1389710.8051,1930.19,14627.6,35598.57,35949.0,25462.54,29108.29,14094.97,8514.79
1389710.8071,2927.02,14709.19,35623.51,35983.52,25468.88,29179.2,14220.67,8520.84
1389710.8091,4041.96,14938.21,35607.29,35972.55,25428.2,29244.09,14499.14,8483.84
1389710.8111,5141.88,15264.23,35570.43,35942.46,25364.21,29300.88,14843.89,8424.0
1389710.8131,5489.87,15500.21,35523.7,35898.17,25308.28,29315.38,15080.79,8369.64
1389710.8151,5081.23,15568.4,35503.63,35878.71,25290.16,29286.53,15116.88,8348.75
1389710.8171,3710.56,15359.31,35506.87,35872.85,25324.82,29205.04,14852.0,8376.46
1389710.8191,2341.37,14979.7,35538.06,35896.5,25393.06,29125.5,14433.58,8437.11
1389710.8211,1856.28,14687.49,35591.94,35950.71,25462.58,29119.21,14151.48,8499.19
1389710.8231,2586.98,14675.0,35627.61,35986.95,25480.61,29179.34,14175.27,8514.79
1389710.8251,3671.22,14858.44,35630.47,35990.05,25461.39,29257.44,14418.51,8495.24
1389710.8271,4830.69,15158.23,35606.91,35972.74,25411.99,29307.04,14748.86,8444.93
1389710.8291,5436.95,15425.64,35558.28,35920.53,25345.76,29319.05,15026.71,8378.79
1389710.8311,5297.57,15542.8,35517.84,35876.95,25306.18,29302.27,15128.9,8337.07
1389710.8331,4237.56,15436.46,35504.97,35855.49,25310.9,29232.17,14964.25,8345.03
1389710.8351,2754.26,15094.62,35518.22,35862.64,25355.96,29132.8,14564.95,8388.38
1389710.8371,1892.14,14743.19,35557.47,35895.35,25412.56,29085.02,14206.32,8431.82
1389710.8391,2249.53,14628.89,35598.47,35940.32,25440.89,29118.97,14113.9,8456.47
1389710.8411,3288.98,14764.69,35613.78,35950.81,25435.36,29206.33,14306.59,8465.24
1389710.8431,4417.9,15025.43,35599.76,35933.78,25398.31,29287.58,14616.06,8434.25
1389710.8451,5293.89,15333.7,35572.49,35902.36,25353.2,29340.08,14944.98,8389.14
1389710.8471,5425.55,15527.87,35544.54,35876.52,25322.96,29338.89,15133.05,8356.52
1389710.8491,4704.48,15515.85,35524.13,35858.3,25319.2,29281.67,15072.06,8346.08
1389710.8511,3223.75,15224.79,35512.5,35850.96,25337.75,29169.28,14712.14,8362.87
1389710.8531,2050.64,14836.27,35532.05,35873.13,25375.08,29080.2,14297.44,8387.52
1389710.8551,1990.75,14631.56,35575.2,35933.55,25415.57,29077.96,14099.93,8422.04
1389710.8571,2900.17,14693.5,35598.81,35961.58,25422.0,29140.95,14203.36,8435.35
1389710.8591,3997.8,14907.5,35589.22,35946.8,25395.3,29208.23,14468.19,8415.32
1389710.8611,5047.51,15214.83,35561.85,35918.53,25352.15,29270.41,14805.18,8379.75
1389710.8631,5431.32,15454.25,35528.23,35869.46,25314.86,29286.67,15042.31,8346.51
1389710.8651,5027.1,15527.15,35505.11,35841.56,25296.93,29260.21,15084.7,8326.58
1389710.8671,3717.71,15330.94,35497.86,35822.59,25310.09,29181.82,14833.98,8335.64
1389710.8691,2327.73,14954.57,35523.94,35840.56,25362.45,29109.29,14416.41,8385.85
1389710.8711,1847.84,14661.5,35563.81,35884.96,25415.85,29087.36,14120.39,8438.97
1389710.8731,2526.67,14636.57,35592.99,35914.62,25432.69,29138.38,14128.97,8457.33
1389710.8751,3618.15,14815.71,35593.56,35914.62,25408.41,29201.42,14365.72,8436.35
1389710.8771,4761.65,15121.94,35582.83,35908.18,25373.46,29264.84,14704.28,8402.59
1389710.8791,5417.01,15405.28,35548.41,35880.05,25323.11,29296.59,14998.49,8356.14
1389710.8811,5282.12,15533.12,35518.13,35859.59,25292.35,29278.81,15110.16,8322.76
1389710.8831,4241.94,15431.31,35505.54,35863.07,25295.17,29215.72,14965.11,8321.33
1389710.8851,2730.66,15087.8,35518.79,35880.05,25337.13,29124.07,14570.62,8345.18
1389710.8871,1881.98,14742.81,35569.82,35923.58,25404.93,29095.46,14224.01,8396.29
1389710.8891,2217.58,14628.84,35619.64,35958.96,25443.99,29134.66,14119.05,8446.12
1389710.8911,3272.2,14759.35,35635.33,35953.34,25438.98,29206.95,14292.1,8458.76
1389710.8931,4404.55,15019.7,35615.73,35934.64,25397.69,29260.59,14595.18,8427.62
1389710.8951,5297.71,15315.2,35570.2,35887.87,25335.12,29299.17,14909.84,8374.41
1389710.8971,5413.2,15500.12,35522.85,35846.29,25294.78,29291.35,15081.36,8318.47
1389710.8991,4691.27,15485.48,35498.34,35831.65,25291.68,29245.67,15025.33,8296.06
1389710.9011,3210.74,15217.54,35507.49,35833.17,25335.51,29169.04,14704.42,8336.12
1389710.9031,2043.3,14844.61,35550.98,35866.93,25406.75,29108.0,14329.29,8418.51
1389710.9051,1970.72,14635.47,35600.33,35920.1,25455.38,29108.24,14134.46,8474.21
1389710.9071,2897.98,14691.78,35622.08,35952.05,25453.76,29166.13,14228.77,8480.98
1389710.9091,4016.78,14918.62,35613.97,35962.11,25413.18,29226.12,14478.11,8445.69
1389710.9111,5077.7,15224.12,35583.79,35929.11,25358.73,29283.34,14807.75,8392.62
1389710.9131,5482.87,15471.6,35547.21,35877.8,25315.14,29289.44,15051.41,8349.09
1389710.9151,5061.29,15536.98,35514.17,35840.42,25294.26,29261.31,15094.0,8328.63
1389710.9171,3746.22,15348.87,35504.87,35828.74,25311.76,29180.48,14842.18,8344.84
1389710.9191,2323.53,14960.34,35532.43,35848.29,25371.6,29100.09,14410.45,8400.11
1389710.9211,1834.77,14659.12,35574.06,35888.87,25423.82,29076.01,14100.93,8449.51
1389710.9231,2514.27,14637.81,35616.93,35934.21,25450.52,29141.0,14122.44,8476.69
1389710.9251,3637.22,14825.73,35616.69,35939.36,25425.34,29209.71,14367.39,8453.18
1389710.9271,4759.46,15106.82,35582.5,35914.38,25370.17,29279.66,14695.31,8392.76
1389710.9291,5453.06,15408.37,35546.83,35885.39,25317.2,29316.81,15007.5,8338.88
1389710.9311,5306.91,15542.94,35515.07,35855.25,25284.82,29304.94,15134.72,8312.51
1389710.9331,4285.62,15455.15,35498.1,35851.48,25290.83,29219.96,14981.89,8317.66
1389710.9351,2722.79,15096.43,35508.45,35859.26,25336.46,29117.78,14566.71,8350.56
1389710.9371,1853.9,14724.69,35546.12,35880.47,25387.53,29078.87,14186.53,8395.63
1389710.9391,2148.68,14585.59,35585.55,35910.37,25418.43,29112.49,14076.0,8429.86
1389710.9411,3244.31,14723.35,35594.23,35922.91,25404.31,29200.8,14261.39,8417.08
1389710.9431,4372.41,14997.91,35586.03,35920.77,25371.36,29283.81,14574.24,8384.09
1389710.9451,5335.52,15329.7,35563.43,35906.03,25325.25,29310.52,14926.01,8350.18
1389710.9471,5443.34,15520.72,35521.32,35865.12,25287.44,29292.78,15117.12,8315.47
1389710.9491,4748.87,15515.09,35493.57,35829.6,25279.33,29250.01,15069.53,8300.69
1389710.9511,3211.31,15226.27,35493.09,35811.76,25308.9,29157.64,14730.98,8331.92
1389710.9531,2024.13,14835.17,35530.43,35844.76,25371.08,29088.31,14309.36,8395.77
1389710.9551,1904.34,14610.91,35580.11,35897.16,25418.19,29099.18,14089.16,8446.69
1389710.9571,2880.48,14682.15,35614.4,35934.98,25430.06,29177.91,14206.03,8452.61
1389710.9591,4007.58,14920.28,35614.11,35931.78,25407.94,29254.77,14492.85,8419.9
1389710.9611,5120.8,15238.29,35583.26,35907.7,25354.15,29311.33,14832.26,8370.02
1389710.9631,5515.67,15486.19,35539.58,35870.84,25303.18,29328.16,15081.88,8325.05
1389710.9651,5122.42,15551.28,35506.01,35838.27,25274.66,29303.22,15118.17,8297.4
1389710.9671,3761.34,15343.86,35485.37,35810.76,25283.44,29214.34,14849.62,8302.26
1389710.9691,2317.48,14950.8,35513.21,35827.35,25344.33,29137.04,14421.13,8352.33
1389710.9711,1783.32,14647.15,35565.91,35870.22,25402.6,29101.71,14119.53,8411.36
1389710.9731,2478.89,14618.68,35607.82,35924.58,25424.15,29131.46,14130.5,8440.97
1389710.9751,3616.95,14820.96,35617.12,35939.65,25409.61,29210.52,14385.46,8432.39
1389710.9771,4795.93,15124.94,35596.61,35921.29,25369.65,29286.48,14721.01,8387.04
1389710.9791,5494.26,15424.97,35557.18,35884.62,25318.34,29333.5,15025.38,8338.02
1389710.9811,5362.46,15564.35,35523.09,35852.67,25289.01,29331.45,15159.99,8313.18
1389710.9831,4315.42,15468.89,35501.06,35831.17,25290.16,29254.34,15011.84,8311.7
1389710.9851,2732.94,15101.05,35510.93,35832.7,25333.5,29154.26,14601.47,8352.04
1389710.9871,1835.73,14735.8,35556.7,35867.36,25392.2,29101.04,14222.05,8416.7
1389710.9891,2129.6,14594.46,35606.63,35914.23,25432.49,29126.6,14099.41,8457.57
1389710.9911,3235.05,14730.22,35617.55,35932.5,25415.85,29180.48,14280.27,8445.22
1389710.9931,4388.95,14994.19,35599.86,35925.44,25374.13,29247.48,14585.45,8406.54
1389710.9951,5364.56,15330.36,35571.44,35895.54,25326.68,29301.22,14927.53,8357.57
1389710.9971,5487.01,15524.44,35530.71,35850.96,25292.59,29305.03,15106.73,8323.29
1389710.9991,4795.22,15521.96,35504.49,35824.54,25283.67,29268.89,15054.23,8310.46
1389711.0011,3224.33,15224.74,35498.91,35813.1,25312.76,29175.81,14702.46,8336.83
1389711.0031,2010.35,14831.59,35533.72,35847.33,25374.8,29097.94,14287.66,8392.67
1389711.0051,1865.58,14597.13,35590.84,35902.89,25431.3,29104.81,14078.0,8438.06
1389711.0071,2850.01,14667.27,35618.88,35938.31,25438.17,29165.84,14189.05,8442.21
1389711.0091,3979.25,14891.2,35604.86,35928.06,25399.93,29236.32,14464.0,8405.11
1389711.0111,5114.51,15218.07,35570.77,35903.12,25339.94,29286.25,14813.42,8335.07
1389711.0131,5517.72,15471.36,35531.81,35872.85,25294.02,29296.64,15071.2,8277.94
1389711.0151,5149.08,15553.81,35500.48,35848.29,25275.61,29273.23,15120.51,8270.17
1389711.0171,3780.75,15362.93,35503.11,35843.38,25305.56,29202.37,14874.56,8311.27
1389711.0191,2331.64,14973.45,35537.63,35861.69,25364.31,29123.55,14452.46,8369.64
1389711.0211,1753.09,14648.82,35583.4,35899.69,25415.33,29087.4,14127.21,8427.33
1389711.0231,2460.48,14613.34,35619.22,35931.73,25428.73,29136.52,14118.72,8449.89
1389711.0251,3585.96,14792.35,35615.11,35921.77,25398.21,29209.09,14349.32,8429.19
1389711.0271,4795.36,15106.97,35594.23,35901.98,25354.82,29266.36,14699.13,8386.42
1389711.0291,5492.07,15419.2,35558.99,35875.61,25312.0,29302.12,15009.83,8343.22
1389711.0311,5388.4,15568.21,35519.65,35847.19,25279.48,29289.49,15135.67,8304.84
1389711.0331,4309.61,15467.6,35502.34,35843.9,25284.2,29225.11,14977.98,8297.02
1389711.0351,2737.71,15110.11,35524.23,35873.8,25340.89,29139.86,14564.85,8351.47
1389711.0371,1786.28,14729.55,35565.76,35917.72,25405.51,29086.74,14181.38,8413.94
1389711.0391,2108.1,14586.31,35605.15,35953.91,25437.41,29112.34,14066.03,8448.51
1389711.0411,3201.68,14726.02,35618.69,35948.71,25435.02,29187.64,14266.02,8446.27
1389711.0431,4401.21,15001.3,35604.05,35924.25,25396.73,29257.49,14583.59,8416.32
1389711.0451,5365.18,15334.08,35573.44,35885.53,25343.61,29318.67,14934.45,8365.82
1389711.0471,5518.1,15535.36,35529.47,35844.76,25296.55,29324.96,15129.23,8322.96
1389711.0491,4789.73,15530.3,35499.48,35819.87,25279.67,29269.94,15081.41,8307.74
1389711.0511,3246.21,15234.71,35499.72,35820.54,25310.57,29157.55,14724.83,8334.54
1389711.0531,1990.56,14830.64,35542.54,35859.78,25376.75,29089.31,14304.45,8392.33
1389711.0551,1875.45,14605.43,35601.86,35918.1,25435.16,29112.49,14096.31,8447.46
1389711.0572,2821.02,14660.88,35618.74,35941.61,25434.16,29169.47,14195.4,8446.98
1389711.0592,3985.6,14896.63,35608.96,35935.36,25399.5,29236.99,14475.92,8417.27
1389711.0612,5107.12,15226.18,35573.3,35908.75,25344.8,29295.16,14821.29,8364.96
1389711.0632,5536.56,15478.95,35524.42,35861.4,25289.4,29308.61,15075.59,8313.08
1389711.0652,5133.44,15553.19,35487.47,35831.98,25262.64,29251.39,15117.03,8292.39
1389711.0672,3777.7,15356.26,35481.12,35835.08,25281.24,29164.51,14859.44,8309.56
1389711.0692,2294.73,14958.81,35511.55,35860.3,25339.75,29082.3,14428.19,8356.95
1389711.0712,1732.06,14642.19,35565.09,35904.36,25402.84,29061.61,14116.58,8405.59
1389711.0732,2411.18,14606.95,35603.81,35940.56,25422.39,29119.83,14107.18,8425.76
1389711.0752,3570.18,14799.79,35605.72,35939.32,25400.21,29193.98,14344.26,8417.75
1389711.0772,4773.19,15111.35,35581.5,35907.32,25353.24,29266.31,14706.28,8383.23
1389711.0792,5505.42,15421.44,35546.83,35873.85,25303.94,29312.52,15041.73,8334.21
1389711.0812,5391.98,15564.25,35504.3,35832.93,25269.03,29294.54,15165.9,8302.74
1389711.0832,4331.45,15462.54,35487.61,35809.33,25276.33,29221.78,14998.39,8304.6
1389711.0852,2728.56,15102.77,35503.44,35820.63,25328.4,29125.74,14571.91,8345.89
1389711.0872,1767.54,14713.53,35541.16,35858.59,25388.29,29080.3,14176.23,8403.45
1389711.0891,2064.51,14577.77,35590.18,35918.76,25428.35,29110.05,14061.36,8440.3
1389711.0911,3185.84,14723.68,35619.6,35951.05,25430.73,29194.88,14252.09,8439.88
1389711.0931,4391.19,15001.63,35600.57,35938.12,25386.77,29267.12,14569.52,8404.78
1389711.0951,5365.85,15324.02,35548.6,35892.82,25327.88,29311.8,14914.9,8350.23
1389711.0971,5528.36,15534.26,35501.01,35839.47,25279.43,29312.66,15120.7,8304.17
1389711.0991,4804.99,15528.39,35474.88,35817.68,25260.93,29260.83,15072.59,8292.82
1389711.1011,3240.78,15243.72,35479.5,35823.64,25292.35,29164.51,14717.53,8324.77
1389711.1031,1956.46,14827.78,35515.65,35855.97,25353.43,29103.9,14286.81,8376.36
1389711.1051,1806.93,14578.77,35563.04,35904.7,25405.55,29091.03,14056.16,8423.47
1389711.1071,2773.24,14642.67,35602.24,35940.89,25425.1,29171.04,14168.98,8443.26
1389711.1091,3979.97,14896.35,35612.87,35941.8,25404.12,29235.03,14461.95,8425.71
1389711.1111,5135.73,15230.56,35586.55,35913.04,25352.48,29297.07,14823.34,8375.79
1389711.1131,5612.76,15507.32,35542.68,35865.31,25297.17,29316.81,15092.8,8322.81
1389711.1151,5192.47,15583.85,35511.16,35831.6,25275.61,29267.93,15139.68,8302.07
1389711.1171,3827.29,15381.34,35496.72,35814.96,25288.54,29177.57,14879.85,8316.99
1389711.1191,2272.32,14959.48,35515.93,35830.69,25341.99,29079.01,14418.99,8367.4
