TimeStamp,P3,P4,F3,F4,FP1,I1,I2,FP2
1389885.0182,2345.47,13060.57,34218.12,33554.51,24503.04,28027.59,12783.67,8455.42
1389885.0202,2594.42,13050.61,34241.92,33574.87,24520.97,28051.28,12771.75,8478.88
1389885.0222,3105.4,13096.05,34260.37,33577.73,24518.25,28091.72,12857.49,8480.98
1389885.0242,3627.73,13161.9,34255.94,33552.56,24489.45,28115.94,12982.04,8465.15
1389885.0262,3967.19,13236.86,34231.09,33520.99,24460.03,28132.49,13101.05,8442.31
1389885.0282,3920.75,13284.73,34211.69,33506.35,24451.74,28133.35,13158.47,8434.63
1389885.0302,3462.12,13288.07,34211.88,33518.27,24464.09,28101.4,13109.4,8445.6
1389885.0322,2780.1,13203.05,34215.65,33528.62,24487.36,28056.05,12967.3,8463.91
1389885.0342,2385.66,13097.53,34220.84,33541.16,24503.19,28014.85,12818.1,8478.12
1389885.0362,2458.14,13043.55,34222.75,33542.73,24506.33,28007.37,12747.81,8484.79
1389885.0382,2915.19,13066.77,34243.83,33552.08,24513.53,28046.75,12801.84,8493.0
1389885.0402,3459.84,13131.29,34246.4,33546.69,24498.13,28096.82,12926.06,8476.78
1389885.0422,3900.0,13209.63,34228.23,33525.04,24471.05,28125.05,13055.14,8448.46
1389885.0442,3986.03,13277.25,34222.03,33520.8,24464.75,28142.79,13150.74,8443.07
1389885.0462,3671.6,13297.46,34216.26,33518.37,24462.42,28121.09,13142.73,8438.25
1389885.0482,2996.35,13227.51,34213.02,33525.18,24477.72,28066.02,13011.17,8452.32
1389885.0502,2472.21,13123.85,34229.95,33545.64,24506.57,28026.77,12858.15,8482.31
1389885.0522,2394.44,13061.24,34246.54,33562.43,24523.07,28020.91,12769.75,8495.24
1389885.0542,2764.32,13067.39,34258.23,33576.59,24525.84,28054.86,12796.36,8502.68
1389885.0562,3286.7,13121.18,34259.37,33573.06,24510.77,28092.67,12898.88,8489.18
1389885.0582,3772.64,13186.41,34232.76,33544.83,24472.48,28111.6,13014.84,8444.12
1389885.0602,3982.74,13246.39,34207.97,33514.22,24439.62,28111.13,13102.34,8409.41
1389885.0622,3819.51,13291.6,34206.49,33519.65,24440.77,28099.97,13133.96,8415.56
1389885.0642,3220.22,13259.32,34198.29,33526.38,24454.45,28060.73,13039.4,8430.96
1389885.0662,2574.63,13143.4,34195.57,33532.19,24475.05,28020.81,12874.8,8449.75
1389885.0682,2353.57,13079.45,34226.76,33562.52,24511.15,28027.11,12783.58,8487.03
1389885.0702,2603.1,13055.76,34243.54,33560.85,24517.78,28042.56,12766.98,8495.86
1389885.0722,3087.33,13081.74,34243.49,33544.07,24502.47,28072.69,12838.27,8481.41
1389885.0742,3631.83,13158.23,34242.3,33540.3,24493.03,28115.71,12968.35,8469.63
1389885.0762,3978.3,13238.86,34229.38,33523.47,24475.01,28135.11,13093.43,8447.93
1389885.0782,3930.95,13281.3,34214.64,33508.97,24459.84,28131.54,13152.08,8429.86
1389885.0802,3461.17,13279.15,34208.83,33510.64,24453.64,28098.92,13108.06,8427.81
1389885.0822,2770.71,13187.12,34217.27,33521.23,24477.1,28055.39,12963.77,8451.27
1389885.0842,2385.04,13091.04,34230.76,33541.16,24503.76,28030.54,12822.63,8479.64
1389885.0862,2457.52,13041.07,34236.91,33550.93,24514.96,28037.69,12765.98,8491.33
1389885.0882,2906.28,13058.81,34238.2,33549.65,24506.09,28064.64,12815.24,8483.41
1389885.0902,3437.28,13120.03,34238.82,33547.31,24493.89,28096.68,12925.72,8470.25
1389885.0922,3894.57,13215.83,34229.38,33534.67,24472.86,28123.29,13061.1,8449.32
1389885.0942,3977.49,13273.77,34220.94,33525.57,24463.99,28142.65,13144.21,8442.31
1389885.0962,3688.96,13311.2,34225.09,33539.49,24472.43,28122.33,13145.5,8451.94
1389885.0982,3007.6,13249.4,34230.86,33549.93,24495.32,28077.46,13026.81,8466.53
1389885.1002,2480.08,13145.4,34236.39,33559.47,24514.01,28040.94,12877.37,8474.3
1389885.1022,2390.1,13074.45,34248.17,33567.58,24525.74,28034.5,12787.63,8488.8
1389885.1042,2772.62,13082.65,34258.89,33573.92,24528.46,28066.3,12813.76,8497.72
1389885.1062,3272.96,13129.38,34266.43,33573.3,24522.83,28104.64,12909.46,8497.29
1389885.1082,3794.77,13209.73,34255.46,33556.37,24494.94,28126.24,13037.73,8468.3
1389885.1102,3992.94,13272.86,34230.38,33528.71,24464.32,28129.77,13134.15,8436.73
1389885.1122,3843.78,13310.2,34212.88,33517.94,24446.78,28118.52,13160.9,8411.36
1389885.1142,3216.55,13269.62,34211.69,33532.91,24460.94,28077.75,13068.3,8425.76
1389885.1162,2612.5,13177.63,34225.28,33554.22,24494.94,28045.66,12922.57,8465.43
1389885.1182,2346.52,13087.32,34240.87,33563.33,24523.07,28028.68,12802.51,8499.81
1389885.1202,2610.35,13067.49,34252.84,33570.34,24528.89,28049.66,12788.49,8508.64
1389885.1222,3081.61,13101.34,34262.38,33571.15,24523.98,28080.51,12857.63,8506.25
1389885.1242,3636.84,13165.62,34243.06,33545.31,24489.12,28096.92,12961.53,8472.4
1389885.1262,3945.16,13226.8,34215.79,33509.78,24455.6,28110.79,13062.76,8435.3
1389885.1282,3930.62,13281.3,34207.01,33498.67,24443.72,28107.69,13128.66,8422.76
1389885.1302,3447.91,13284.59,34207.49,33510.07,24452.88,28080.51,13086.46,8432.77
1389885.1322,2788.88,13201.05,34213.93,33523.75,24472.19,28049.28,12954.67,8452.61
1389885.1342,2370.17,13105.92,34231.81,33543.78,24502.47,28029.64,12824.82,8478.45
1389885.1362,2476.74,13069.77,34253.6,33566.0,24522.93,28035.55,12777.9,8496.05
1389885.1382,2906.13,13089.47,34264.0,33574.78,24522.74,28067.02,12829.02,8495.47
1389885.1402,3471.33,13151.03,34264.95,33570.68,24510.43,28104.45,12938.45,8485.75
1389885.1422,3889.75,13229.71,34249.36,33543.88,24486.26,28129.58,13063.48,8462.38
1389885.1442,3996.66,13286.88,34223.47,33522.99,24462.99,28139.88,13147.74,8439.35
1389885.1462,3673.51,13309.05,34207.06,33517.7,24455.74,28124.76,13139.63,8431.24
1389885.1482,3005.55,13241.58,34209.59,33522.8,24471.67,28086.47,13015.22,8444.6
1389885.1502,2462.77,13142.4,34225.66,33543.21,24497.42,28052.05,12869.74,8470.06
1389885.1522,2386.05,13075.73,34248.5,33568.43,24515.92,28025.54,12778.47,8485.75
1389885.1542,2744.39,13073.4,34255.37,33575.35,24517.49,28043.89,12793.11,8486.7
1389885.1562,3263.43,13116.5,34254.13,33571.91,24508.24,28085.04,12884.38,8482.17
1389885.1582,3783.18,13202.0,34246.5,33555.75,24490.65,28113.85,13010.17,8462.86
1389885.1602,4007.91,13274.72,34239.2,33543.45,24479.34,28134.83,13123.94,8450.18
1389885.1622,3855.18,13325.31,34228.71,33542.06,24471.81,28130.58,13169.0,8447.79
1389885.1642,3242.49,13282.44,34223.04,33540.59,24484.4,28084.19,13077.12,8459.04
1389885.1662,2612.73,13178.4,34227.28,33554.61,24502.33,28035.31,12919.48,8478.17
1389885.1682,2352.29,13084.13,34238.06,33570.96,24516.49,28016.14,12797.5,8494.19
1389885.1702,2600.67,13066.2,34251.6,33577.16,24522.5,28037.69,12791.3,8499.05
1389885.1722,3079.61,13090.99,34264.09,33573.73,24526.17,28077.27,12862.45,8500.05
1389885.1742,3634.93,13157.75,34253.51,33549.22,24504.47,28107.31,12963.96,8474.68
1389885.1762,3961.18,13237.57,34235.96,33520.7,24477.01,28129.2,13080.84,8448.46
1389885.1782,3942.87,13292.46,34222.13,33502.54,24458.6,28119.71,13146.31,8429.48
1389885.1802,3460.03,13281.3,34213.69,33502.39,24458.22,28083.09,13099.39,8429.72
1389885.1822,2792.74,13193.8,34207.78,33505.97,24472.0,28039.17,12963.11,8441.64
1389885.1842,2358.39,13079.84,34211.45,33517.89,24488.12,28007.22,12818.29,8458.76
1389885.1862,2474.02,13052.75,34231.95,33543.5,24509.34,28022.91,12777.43,8481.03
1389885.1882,2890.54,13068.92,34239.92,33543.73,24509.1,28054.38,12830.83,8481.69
1389885.1902,3450.68,13135.82,34242.68,33539.92,24493.65,28092.44,12934.35,8465.24
1389885.1922,3879.79,13222.12,34242.78,33539.97,24481.39,28136.88,13062.19,8453.94
1389885.1942,4007.63,13290.41,34231.14,33535.53,24465.23,28152.99,13148.98,8437.83
1389885.1962,3675.32,13311.72,34223.94,33532.34,24460.22,28128.77,13141.82,8438.49
1389885.1982,3015.47,13248.11,34221.8,33535.87,24478.15,28058.72,13018.61,8458.23
1389885.2002,2453.8,13132.05,34228.28,33549.65,24503.81,28011.23,12862.35,8484.65
1389885.2022,2384.76,13066.91,34241.78,33562.47,24512.68,27999.83,12769.84,8491.95
1389885.2042,2717.83,13061.0,34252.12,33567.0,24511.15,28026.54,12783.72,8490.94
1389885.2062,3255.03,13110.11,34257.37,33561.76,24501.04,28070.26,12885.14,8474.4
1389885.2082,3761.05,13192.23,34252.6,33551.98,24483.11,28111.56,13019.8,8447.51
1389885.2102,4007.63,13269.81,34236.01,33540.54,24466.37,28127.1,13125.71,8432.82
1389885.2122,3820.09,13303.42,34217.31,33531.24,24455.41,28110.7,13155.18,8427.43
1389885.2142,3233.15,13256.98,34198.72,33517.7,24452.45,28063.11,13065.82,8428.96
1389885.2162,2578.54,13146.74,34190.94,33517.98,24468.28,28016.05,12898.83,8446.41
1389885.2182,2340.51,13065.39,34210.02,33544.74,24492.55,28009.32,12782.05,8474.49
1389885.2202,2563.19,13037.73,34226.04,33551.65,24502.95,28035.21,12768.22,8483.84
1389885.2222,3071.98,13079.22,34238.87,33549.74,24501.61,28080.75,12854.48,8480.12
1389885.2242,3624.01,13165.81,34250.84,33550.5,24493.46,28130.82,12982.75,8472.01
1389885.2262,3982.78,13254.93,34246.59,33544.74,24477.58,28164.2,13111.4,8457.85
1389885.2282,3956.18,13313.44,34238.87,33541.4,24470.05,28172.83,13185.69,8451.65
1389885.2302,3506.66,13315.73,34228.71,33537.68,24467.8,28142.98,13147.16,8446.03
1389885.2322,2809.43,13227.27,34229.71,33542.54,24488.07,28101.16,13005.16,8455.47
1389885.2342,2405.45,13122.13,34244.26,33561.19,24509.24,28065.59,12855.53,8477.02
1389885.2362,2479.84,13072.97,34259.28,33573.77,24519.83,28052.0,12785.58,8493.57
1389885.2382,2921.53,13086.99,34265.71,33570.68,24517.92,28086.57,12826.35,8494.14
1389885.2402,3451.87,13146.59,34260.8,33560.18,24507.57,28127.15,12939.36,8482.6
1389885.2422,3892.33,13225.22,34245.97,33547.12,24489.07,28149.7,13067.72,8464.77
1389885.2442,3988.17,13284.16,34230.19,33533.48,24473.48,28144.08,13155.03,8450.75
1389885.2462,3690.96,13304.28,34215.74,33523.47,24462.85,28115.9,13149.45,8440.16
1389885.2482,3028.25,13239.72,34217.31,33525.52,24475.34,28069.21,13023.19,8451.65
1389885.2502,2504.83,13142.92,34232.19,33549.07,24502.18,28040.17,12880.04,8479.12
1389885.2522,2418.57,13081.6,34236.91,33564.24,24511.53,28029.49,12793.21,8487.65
1389885.2542,2743.05,13067.44,34236.58,33564.52,24504.19,28041.46,12794.54,8477.88
1389885.2562,3248.17,13105.73,34231.19,33549.27,24488.6,28070.98,12880.28,8462.95
1389885.2582,3751.09,13180.64,34227.47,33537.34,24473.34,28103.59,13004.83,8445.41
1389885.2602,3966.05,13244.58,34211.45,33515.89,24450.88,28114.75,13110.16,8425.33
1389885.2622,3804.06,13272.81,34200.0,33509.16,24440.86,28103.97,13136.91,8419.37
1389885.2642,3250.31,13254.74,34209.88,33530.86,24460.84,28075.41,13051.89,8439.68
1389885.2662,2638.15,13168.38,34224.37,33557.61,24493.84,28041.75,12911.42,8466.86
1389885.2682,2391.77,13090.95,34235.86,33569.05,24508.96,28015.38,12798.22,8482.93
1389885.2702,2610.73,13067.68,34245.83,33566.72,24515.44,28032.45,12779.81,8485.27
1389885.2722,3080.85,13095.09,34248.64,33556.42,24506.14,28064.78,12847.85,8474.45
1389885.2742,3592.59,13153.36,34239.68,33533.29,24489.21,28094.77,12960.63,8455.52
1389885.2762,3928.9,13228.42,34222.18,33512.17,24467.66,28115.94,13078.88,8435.06
1389885.2782,3891.66,13269.71,34203.96,33505.83,24450.11,28114.75,13135.91,8425.62
1389885.2802,3464.51,13274.39,34197.29,33512.74,24445.44,28086.28,13099.34,8425.71
1389885.2822,2789.02,13189.6,34204.87,33522.42,24465.85,28047.04,12962.3,8445.07
1389885.2842,2411.65,13106.97,34227.9,33544.97,24494.89,28026.44,12838.84,8470.82
1389885.2862,2490.95,13072.44,34249.69,33567.81,24512.29,28040.32,12791.44,8491.99
1389885.2882,2913.52,13079.84,34254.94,33558.52,24510.43,28065.16,12830.31,8488.13
1389885.2902,3419.16,13125.14,34249.93,33541.68,24494.08,28097.73,12928.54,8471.87
1389885.2922,3863.53,13206.63,34233.62,33526.47,24464.42,28120.04,13049.32,8448.08
1389885.2942,3936.82,13252.93,34216.31,33512.98,24448.35,28124.67,13125.23,8430.86
1389885.2962,3655.67,13278.39,34208.35,33516.41,24452.45,28097.01,13116.12,8429.91
1389885.2982,2997.54,13219.64,34208.83,33522.66,24474.29,28061.06,13008.74,8448.27
1389885.3002,2491.62,13124.99,34217.08,33534.58,24498.51,28029.35,12864.97,8468.87
1389885.3022,2382.71,13057.9,34232.72,33551.17,24516.59,28020.58,12769.41,8484.94
1389885.3042,2743.39,13065.05,34246.78,33559.47,24518.97,28053.67,12793.21,8488.32
1389885.3062,3228.0,13107.16,34254.27,33556.85,24510.82,28094.82,12886.0,8481.55
1389885.3082,3747.23,13186.5,34247.45,33544.69,24486.97,28125.96,13013.27,8460.67
1389885.3102,3932.76,13233.28,34221.32,33517.13,24460.03,28124.67,13098.29,8428.91
1389885.3122,3798.29,13266.76,34201.77,33507.35,24443.77,28102.83,13126.8,8402.83
1389885.3142,3214.88,13240.34,34203.63,33516.84,24455.79,28069.64,13051.56,8416.51
1389885.3162,2626.66,13159.42,34219.56,33537.11,24484.64,28041.89,12919.81,8454.23
1389885.3182,2371.74,13089.71,34248.17,33564.19,24518.35,28033.07,12811.9,8492.8
1389885.3202,2622.08,13079.74,34262.38,33579.02,24529.27,28050.33,12799.69,8502.44
1389885.3222,3046.18,13091.57,34254.36,33564.09,24509.53,28069.59,12852.1,8480.74
1389885.3242,3584.72,13156.61,34249.21,33549.41,24488.79,28101.35,12964.97,8455.33
1389885.3262,3902.82,13227.85,34231.86,33528.71,24468.14,28122.57,13077.69,8431.86
1389885.3282,3909.59,13277.01,34224.71,33525.38,24462.66,28124.86,13137.15,8424.0
1389885.3302,3452.49,13269.86,34216.17,33521.56,24463.08,28091.0,13088.66,8427.1
1389885.3322,2805.47,13189.7,34215.65,33523.28,24476.91,28045.37,12952.38,8448.65
1389885.3342,2392.44,13098.19,34227.47,33537.58,24500.99,28021.82,12816.81,8472.87
1389885.3362,2482.84,13065.24,34242.54,33553.22,24513.77,28035.31,12774.23,8484.27
1389885.3382,2885.29,13083.98,34253.17,33554.94,24515.44,28076.75,12826.35,8489.47
1389885.3402,3423.79,13133.58,34253.22,33546.98,24503.9,28117.28,12931.21,8481.17
1389885.3422,3842.12,13208.82,34240.87,33528.9,24479.3,28141.64,13059.52,8457.8
1389885.3442,3940.87,13254.79,34231.81,33514.27,24465.04,28131.15,13134.19,8439.07
1389885.3462,3649.62,13279.11,34220.41,33517.79,24461.13,28109.22,13131.19,8435.01
1389885.3482,3024.29,13230.61,34219.6,33537.2,24480.97,28079.42,13028.19,8451.65
1389885.3502,2494.72,13137.29,34225.04,33551.46,24500.8,28048.33,12880.04,8469.96
1389885.3522,2413.13,13076.26,34240.35,33567.91,24515.58,28033.93,12777.43,8485.08
1389885.3542,2740.76,13072.44,34247.31,33568.2,24514.58,28049.81,12793.21,8485.27
1389885.3562,3234.48,13105.39,34249.83,33562.43,24505.67,28082.42,12880.99,8480.22
1389885.3582,3737.5,13186.03,34251.55,33553.27,24488.26,28106.31,12999.35,8467.25
1389885.3602,3947.64,13249.07,34239.87,33533.34,24464.61,28120.23,13100.34,8447.98
1389885.3622,3810.26,13284.3,34218.32,33514.55,24442.53,28107.36,13130.09,8423.33
1389885.3642,3251.89,13266.9,34222.32,33529.52,24459.32,28085.62,13067.63,8436.59
1389885.3662,2653.46,13183.4,34228.71,33554.03,24482.73,28050.38,12930.97,8461.86
1389885.3682,2385.28,13101.87,34236.63,33571.87,24502.28,28037.89,12816.1,8478.07
1389885.3702,2617.07,13095.52,34253.32,33577.26,24516.63,28070.07,12815.76,8486.7
1389885.3722,3062.53,13112.74,34262.8,33572.15,24517.97,28107.79,12875.13,8487.7
1389885.3742,3600.07,13165.86,34253.98,33549.5,24497.37,28119.47,12974.65,8466.86
1389885.3762,3907.92,13223.13,34235.39,33529.81,24469.76,28120.9,13081.84,8435.54
1389885.3782,3906.58,13267.42,34214.12,33519.46,24451.07,28118.09,13142.06,8417.04
1389885.3802,3451.06,13255.41,34195.33,33509.83,24442.39,28077.84,13091.95,8413.7
1389885.3822,2809.29,13187.7,34204.01,33518.99,24466.95,28037.46,12969.16,8439.49
1389885.3842,2395.44,13101.63,34224.47,33540.92,24498.23,28015.19,12844.61,8471.54
1389885.3862,2487.52,13068.73,34241.49,33556.37,24512.82,28023.68,12788.2,8484.65
1389885.3882,2867.08,13067.91,34241.49,33545.45,24502.8,28052.57,12820.44,8475.26
1389885.3902,3403.14,13120.41,34237.91,33538.01,24484.21,28085.52,12920.0,8460.28
1389885.3922,3824.81,13195.9,34233.62,33533.48,24469.33,28114.89,13035.82,8443.45
1389885.3942,3958.37,13257.79,34224.09,33524.33,24455.03,28126.1,13129.71,8424.43
1389885.3962,3643.7,13264.47,34201.29,33510.12,24437.05,28085.62,13107.97,8411.6
1389885.3982,3023.34,13223.32,34200.48,33525.85,24450.21,28047.76,13002.59,8436.49
1389885.4002,2487.99,13133.72,34218.08,33545.26,24484.88,28020.29,12867.88,8467.01
1389885.4022,2427.29,13089.42,34248.4,33567.19,24515.3,28025.77,12791.35,8490.85
1389885.4042,2744.06,13094.38,34270.77,33579.21,24528.98,28063.35,12819.15,8503.77
1389885.4062,3252.94,13131.52,34268.76,33568.1,24515.77,28093.96,12899.5,8489.13
1389885.4082,3736.69,13199.52,34256.94,33553.37,24495.75,28126.43,13007.21,8468.82
1389885.4102,3984.55,13272.67,34242.35,33545.88,24478.39,28148.75,13115.93,8450.65
1389885.4122,3821.66,13297.13,34224.94,33529.48,24462.94,28128.82,13138.11,8431.72
1389885.4142,3272.49,13272.53,34215.88,33528.33,24466.28,28088.29,13064.1,8435.25
1389885.4162,2641.15,13180.07,34219.79,33540.92,24485.35,28048.14,12923.43,8455.37
1389885.4182,2391.82,13099.0,34227.8,33556.42,24492.79,28027.59,12806.89,8470.39
1389885.4202,2588.84,13076.26,34243.3,33570.15,24504.28,28045.56,12787.01,8479.31
1389885.4222,3065.49,13105.49,34258.27,33583.07,24505.9,28084.42,12858.34,8470.2
1389885.4242,3581.33,13166.72,34252.46,33565.05,24485.26,28116.99,12971.59,8447.17
1389885.4262,3934.38,13237.48,34240.2,33543.88,24461.75,28136.88,13089.32,8428.19
1389885.4282,3907.11,13280.68,34226.37,33531.57,24449.45,28134.16,13149.17,8419.9
1389885.4302,3481.34,13284.64,34214.41,33532.67,24451.02,28103.26,13107.59,8428.0
1389885.4322,2817.58,13214.73,34222.65,33549.55,24481.73,28069.07,12982.04,8460.33
1389885.4342,2428.58,13128.95,34241.01,33573.82,24512.82,28044.37,12849.0,8491.47
1389885.4362,2484.94,13083.89,34253.41,33576.44,24522.5,28045.09,12791.78,8498.86
1389885.4382,2885.49,13091.14,34260.32,33569.72,24518.87,28068.45,12829.21,8492.71
1389885.4402,3400.76,13136.67,34258.8,33555.99,24500.66,28095.87,12922.0,8475.5
1389885.4422,3842.78,13201.72,34239.2,33537.39,24468.71,28111.56,13029.34,8445.07
1389885.4442,3948.4,13258.7,34221.65,33519.75,24451.64,28120.62,13116.79,8425.38
1389885.4462,3676.56,13286.35,34215.98,33519.75,24450.59,28109.27,13124.8,8418.7
1389885.4482,3026.87,13231.23,34204.53,33520.99,24457.27,28058.63,13003.3,8429.53
1389885.4502,2500.77,13138.72,34216.36,33547.98,24485.88,28027.49,12857.3,8462.62
1389885.4522,2415.42,13091.85,34241.35,33576.64,24515.06,28036.26,12783.72,8489.32
1389885.4542,2740.19,13088.85,34254.79,33583.79,24521.07,28068.78,12798.5,8495.09
1389885.4562,3240.49,13132.76,34260.66,33579.73,24513.44,28114.04,12892.15,8485.99
1389885.4582,3747.27,13208.96,34257.56,33568.34,24493.89,28158.19,13016.94,8466.29
1389885.4602,3973.39,13274.15,34238.87,33542.3,24471.0,28171.49,13112.74,8446.36
1389885.4622,3831.82,13314.92,34229.81,33535.15,24465.04,28164.77,13154.79,8443.79
1389885.4642,3282.12,13292.84,34229.33,33547.07,24473.91,28126.15,13092.09,8450.7
1389885.4662,2660.47,13201.86,34243.78,33569.86,24501.85,28079.08,12948.8,8475.3
1389885.4682,2418.33,13132.91,34267.76,33585.84,24523.83,28054.38,12834.5,8499.38
1389885.4702,2620.08,13114.17,34292.51,33603.62,24536.14,28063.92,12811.76,8512.64
1389885.4722,3089.05,13145.11,34300.38,33607.3,24534.13,28092.1,12883.09,8509.88
1389885.4742,3598.17,13188.89,34277.06,33580.64,24501.37,28107.79,12973.45,8482.84
1389885.4762,3937.15,13251.74,34242.54,33547.26,24462.04,28123.38,13078.79,8448.51
1389885.4782,3910.02,13282.16,34218.41,33522.09,24442.96,28118.9,13135.34,8427.29
1389885.4802,3495.5,13285.26,34201.58,33520.18,24440.86,28090.91,13098.86,8423.66
1389885.4822,2823.54,13208.44,34203.25,33536.25,24464.47,28055.39,12966.35,8446.79
1389885.4842,2445.79,13132.67,34222.8,33568.29,24493.51,28041.75,12839.94,8474.83
1389885.4862,2499.49,13096.38,34240.73,33590.94,24511.86,28052.62,12784.53,8497.53
1389885.4882,2908.75,13106.87,34250.41,33588.6,24511.53,28078.89,12817.29,8494.66
1389885.4902,3417.92,13159.13,34260.56,33584.22,24504.81,28110.03,12913.13,8486.8
1389885.4922,3885.27,13245.06,34254.94,33568.62,24487.74,28135.35,13043.6,8470.11
1389885.4942,3981.78,13296.99,34236.1,33547.64,24472.91,28143.46,13134.62,8452.42
1389885.4962,3705.22,13318.44,34224.99,33542.73,24461.94,28114.99,13136.1,8440.78
1389885.4982,3038.17,13254.55,34228.23,33544.31,24474.1,28076.27,13021.71,8453.8
1389885.5002,2527.81,13171.25,34246.64,33566.19,24505.33,28058.96,12889.1,8486.22
1389885.5022,2411.56,13113.17,34268.72,33591.18,24528.84,28064.21,12802.32,8507.21
1389885.5042,2760.79,13116.98,34281.54,33601.91,24538.9,28094.44,12823.39,8513.36
1389885.5062,3224.52,13132.19,34255.56,33576.02,24511.58,28100.16,12886.91,8489.18
1389885.5082,3745.46,13194.8,34230.95,33548.98,24479.15,28118.23,12996.72,8461.67
1389885.5102,3939.77,13243.1,34203.68,33518.99,24450.02,28131.68,13091.85,8432.06
1389885.5122,3826.09,13283.92,34192.76,33515.17,24442.44,28121.57,13129.47,8421.8
1389885.5142,3239.92,13259.27,34187.42,33512.45,24448.06,28074.27,13050.61,8421.57
1389885.5162,2642.11,13185.84,34209.11,33537.82,24479.06,28049.66,12921.29,8454.61
1389885.5182,2370.79,13112.31,34238.72,33569.15,24516.49,28047.8,12815.33,8481.17
1389885.5202,2607.06,13096.24,34256.89,33588.32,24530.89,28057.39,12791.83,8485.27
1389885.5222,3047.56,13117.03,34256.46,33587.84,24521.54,28085.57,12848.81,8482.41
1389885.5242,3602.89,13185.31,34256.61,33583.31,24504.71,28127.72,12975.27,8474.16
1389885.5262,3930.66,13245.87,34237.53,33550.65,24473.72,28128.58,13077.4,8451.27
1389885.5282,3936.48,13289.69,34216.93,33530.67,24450.16,28127.53,13137.72,8433.49
1389885.5302,3490.35,13296.89,34211.21,33529.57,24451.74,28105.12,13105.78,8435.25
1389885.5322,2836.9,13220.74,34214.64,33540.01,24469.09,28068.26,12977.74,8452.85
1389885.5342,2405.41,13124.04,34223.27,33554.32,24491.69,28040.32,12842.23,8473.3
1389885.5362,2477.31,13081.46,34236.34,33573.06,24506.57,28050.52,12785.87,8491.23
1389885.5382,2870.89,13095.29,34243.3,33574.16,24503.04,28092.82,12830.88,8496.71
1389885.5402,3415.63,13153.98,34245.3,33566.86,24490.31,28134.54,12938.17,8489.04
1389885.5422,3865.81,13240.29,34246.02,33556.85,24475.29,28158.1,13058.09,8470.73
1389885.5442,3984.31,13299.04,34241.97,33552.22,24469.28,28162.05,13143.68,8462.33
1389885.5462,3693.96,13315.82,34224.94,33543.69,24461.32,28131.06,13140.73,8449.94
1389885.5482,3060.96,13261.7,34223.13,33551.41,24474.58,28079.61,13030.24,8461.76
1389885.5502,2524.14,13169.24,34232.05,33558.85,24500.99,28042.13,12890.72,8480.36
1389885.5522,2412.65,13096.14,34243.06,33569.96,24520.59,28038.31,12796.78,8489.99
1389885.5542,2734.95,13085.46,34245.97,33573.49,24520.35,28057.15,12800.65,8486.65
1389885.5562,3224.04,13116.41,34248.07,33567.48,24505.71,28093.06,12889.1,8467.72
1389885.5582,3752.8,13205.77,34256.94,33571.96,24496.03,28137.97,13017.61,8452.94
1389885.5602,3976.39,13265.75,34241.63,33551.51,24476.01,28153.76,13116.79,8442.78
1389885.5622,3845.88,13302.76,34223.47,33537.87,24457.79,28133.82,13144.45,8439.16
1389885.5642,3267.0,13262.65,34208.83,33528.95,24451.88,28084.38,13053.85,8440.78
1389885.5662,2633.29,13162.52,34197.81,33529.86,24460.37,28029.35,12899.35,8452.37
1389885.5682,2357.2,13082.32,34217.17,33545.02,24487.07,28013.28,12783.48,8476.02
1389885.5702,2593.33,13075.59,34245.4,33557.37,24505.81,28037.98,12776.9,8488.47
1389885.5722,3035.59,13099.39,34264.76,33563.67,24508.91,28081.47,12850.43,8489.9
1389885.5742,3601.65,13176.82,34275.49,33570.58,24506.29,28138.55,12982.04,8484.6
1389885.5762,3941.11,13248.64,34268.43,33559.23,24491.12,28161.58,13097.48,8464.53
1389885.5782,3956.46,13301.9,34255.13,33554.84,24476.01,28161.67,13168.1,8450.22
1389885.5802,3507.33,13299.66,34245.54,33564.24,24471.86,28119.04,13133.81,8453.04
1389885.5822,2855.11,13221.17,34230.76,33555.89,24473.67,28067.93,12992.57,8456.66
1389885.5842,2408.27,13111.83,34222.08,33550.89,24479.82,28025.15,12831.5,8464.86
1389885.5862,2490.33,13083.51,34241.78,33563.71,24497.8,28038.17,12776.81,8484.03
1389885.5882,2878.14,13096.0,34259.61,33563.71,24509.62,28077.56,12821.49,8495.14
1389885.5902,3430.99,13155.65,34267.48,33566.91,24505.05,28117.14,12928.96,8484.79
1389885.5922,3852.18,13219.79,34252.84,33549.93,24480.63,28129.39,13030.82,8461.24
1389885.5942,3983.78,13275.53,34233.57,33536.25,24457.46,28135.73,13116.98,8443.5
1389885.5962,3690.0,13298.7,34220.51,33533.62,24451.4,28121.19,13120.08,8443.02
1389885.5982,3073.5,13253.64,34219.17,33547.31,24466.14,28080.8,13015.89,8458.9
1389885.6002,2510.83,13148.74,34226.56,33561.52,24492.08,28037.17,12862.25,8480.93
1389885.6022,2437.73,13098.05,34247.64,33582.17,24514.77,28033.98,12783.91,8502.15
1389885.6042,2735.04,13087.32,34257.08,33587.98,24518.68,28053.72,12784.53,8505.15
1389885.6062,3250.65,13133.58,34269.62,33595.95,24518.87,28096.15,12872.94,8500.29
1389885.6082,3738.45,13199.86,34259.47,33575.92,24495.84,28129.49,12994.58,8474.78
1389885.6102,3980.78,13254.79,34234.81,33543.83,24464.66,28141.45,13094.95,8436.68
1389885.6122,3841.69,13292.5,34229.62,33544.69,24459.41,28134.49,13132.86,8422.66
1389885.6142,3301.81,13277.48,34226.95,33552.32,24469.14,28092.91,13064.24,8440.45
1389885.6162,2664.42,13192.08,34227.85,33560.8,24489.93,28048.04,12923.86,8470.49
1389885.6182,2407.46,13114.41,34232.43,33572.49,24501.23,28029.45,12805.32,8491.95
1389885.6202,2598.38,13090.18,34241.35,33572.77,24504.28,28047.71,12783.24,8498.43
1389885.6222,3057.43,13105.35,34244.3,33557.71,24495.65,28079.8,12842.13,8488.04
1389885.6242,3579.52,13168.48,34245.11,33550.7,24484.83,28118.18,12954.86,8474.3
1389885.6262,3941.15,13247.59,34237.29,33538.73,24464.99,28142.6,13082.17,8452.46
1389885.6282,3924.8,13294.65,34228.71,33527.66,24449.97,28145.51,13149.93,8437.16
1389885.6302,3516.91,13304.66,34227.52,33534.67,24455.36,28121.09,13111.16,8442.74
1389885.6322,2849.82,13231.23,34226.23,33545.83,24471.33,28074.79,12975.03,8455.99
1389885.6342,2436.92,13135.58,34233.96,33559.99,24493.27,28044.51,12836.03,8474.06
1389885.6362,2486.32,13092.14,34246.35,33573.97,24508.43,28048.09,12781.1,8491.14
1389885.6382,2895.93,13102.01,34254.84,33582.12,24512.34,28083.52,12825.87,8492.18
1389885.6402,3412.29,13156.27,34256.65,33580.93,24503.85,28125.34,12927.01,8485.03
1389885.6422,3857.23,13229.32,34247.4,33561.28,24482.25,28151.9,13045.88,8465.91
1389885.6442,3988.79,13295.8,34244.11,33552.17,24477.68,28171.21,13142.78,8457.47
1389885.6462,3725.72,13320.73,34230.28,33546.69,24469.57,28149.32,13145.78,8448.74
1389885.6482,3063.11,13252.69,34203.49,33524.71,24459.79,28087.0,13026.05,8440.07
1389885.6502,2511.84,13149.36,34201.44,33526.52,24471.43,28047.23,12874.56,8450.27
1389885.6522,2409.98,13095.76,34221.13,33551.17,24489.12,28039.27,12790.4,8466.24
1389885.6542,2728.27,13094.47,34242.35,33573.58,24500.04,28065.88,12808.42,8474.3
1389885.6562,3231.57,13142.4,34261.37,33579.02,24502.23,28108.5,12898.59,8475.69
1389885.6582,3735.59,13214.88,34263.33,33570.1,24485.73,28146.65,13016.13,8458.76
1389885.6602,3979.87,13280.77,34248.64,33547.21,24458.13,28165.77,13125.52,8427.29
1389885.6622,3838.83,13313.1,34227.28,33533.05,24446.97,28156.24,13161.8,8426.86
1389885.6642,3309.49,13305.33,34228.81,33540.4,24466.42,28127.1,13091.95,8456.66
1389885.6662,2683.26,13219.26,34237.53,33558.28,24490.07,28089.05,12957.05,8484.65
1389885.6682,2409.79,13132.38,34234.48,33557.75,24498.18,28052.86,12830.45,8488.8
1389885.6702,2596.04,13099.34,34243.25,33558.75,24503.52,28057.48,12790.35,8485.75
1389885.6722,3057.48,13116.46,34245.16,33551.17,24497.94,28088.29,12846.71,8478.55
1389885.6742,3570.6,13165.76,34234.29,33531.48,24476.34,28115.13,12956.67,8454.85
1389885.6762,3927.57,13243.1,34220.41,33519.65,24456.12,28140.31,13078.74,8435.92
1389885.6782,3926.23,13295.75,34214.64,33527.43,24452.16,28141.64,13145.07,8434.06
1389885.6802,3541.57,13311.67,34211.26,33543.97,24454.36,28122.71,13119.7,8436.06
1389885.6822,2850.58,13218.17,34201.96,33544.4,24464.56,28081.47,12971.83,8440.64
1389885.6842,2443.7,13132.24,34215.5,33554.99,24487.31,28057.24,12839.27,8458.33
1389885.6862,2487.85,13095.52,34240.06,33572.68,24509.72,28053.24,12786.25,8481.74
1389885.6882,2901.36,13107.21,34251.88,33572.92,24507.48,28066.26,12815.43,8485.46
1389885.6902,3398.42,13143.21,34249.26,33556.42,24491.46,28104.12,12907.79,8470.35
1389885.6922,3855.28,13215.45,34237.53,33541.02,24463.85,28121.95,13029.24,8437.35
1389885.6942,3951.03,13257.84,34219.56,33525.14,24439.29,28126.96,13110.45,8418.32
1389885.6962,3708.17,13291.65,34211.93,33533.43,24432.47,28113.56,13115.17,8418.66
1389885.6982,3058.86,13243.87,34209.68,33531.81,24446.92,28076.32,13011.41,8443.31
1389885.7002,2544.21,13157.08,34218.84,33531.67,24474.86,28043.8,12875.8,8474.64
1389885.7022,2420.0,13103.25,34243.87,33554.03,24508.29,28039.65,12790.78,8501.44
1389885.7042,2766.51,13118.65,34268.29,33574.63,24518.87,28077.65,12813.38,8510.97
1389885.7062,3242.54,13156.51,34273.77,33569.29,24507.1,28121.05,12901.21,8494.43
1389885.7082,3772.16,13232.04,34267.62,33561.14,24483.11,28151.52,13023.57,8471.87
1389885.7102,3980.21,13280.97,34246.69,33545.45,24463.37,28162.96,13114.88,8447.7
1389885.7122,3871.16,13310.39,34227.76,33542.68,24458.51,28142.36,13143.3,8441.02
1389885.7142,3299.28,13285.4,34215.98,33553.37,24473.62,28097.87,13068.63,8458.85
1389885.7162,2692.65,13203.81,34218.65,33574.63,24492.31,28064.3,12934.97,8481.07
1389885.7182,2413.42,13134.19,34242.59,33603.96,24513.39,28059.63,12827.54,8499.43
1389885.7202,2631.86,13110.83,34264.09,33608.3,24526.6,28074.6,12800.79,8510.64
1389885.7222,3067.45,13129.43,34273.53,33602.05,24529.17,28110.51,12865.26,8515.45
1389885.7242,3612.04,13189.13,34272.58,33599.29,24510.67,28139.55,12970.88,8503.1
1389885.7262,3938.63,13247.92,34249.79,33571.87,24474.67,28148.42,13064.48,8469.01
1389885.7282,3956.51,13290.22,34234.05,33553.6,24464.56,28151.99,13131.19,8446.6
1389885.7302,3523.3,13299.37,34234.38,33557.85,24482.21,28123.29,13094.33,8459.28
1389885.7322,2878.95,13232.9,34241.97,33579.73,24507.62,28080.28,12970.16,8497.67
1389885.7342,2456.14,13150.07,34258.13,33604.91,24527.22,28047.85,12834.5,8534.1
1389885.7362,2506.59,13104.34,34271.63,33623.17,24537.85,28052.09,12768.7,8554.65
1389885.7382,2884.91,13101.58,34269.48,33627.23,24531.13,28073.12,12796.26,8542.87
1389885.7402,3415.39,13149.93,34267.72,33630.99,24526.46,28100.64,12898.16,8524.28
1389885.7422,3864.0,13234.76,34265.05,33632.23,24509.34,28133.2,13030.67,8494.47
1389885.7442,3992.7,13296.32,34262.09,33630.18,24493.03,28149.32,13123.99,8479.79
1389885.7462,3728.1,13318.73,34255.27,33612.78,24488.5,28130.58,13122.27,8494.57
1389885.7482,3102.11,13272.95,34257.08,33602.72,24519.88,28090.05,13025.48,8531.81
1389885.7502,2561.43,13191.75,34263.23,33618.88,24551.59,28054.43,12893.68,8551.65
1389885.7522,2462.2,13149.45,34287.84,33674.43,24570.42,28067.26,12822.15,8530.19
1389885.7542,2792.26,13154.32,34305.72,33704.57,24569.75,28104.83,12841.56,8516.88
1389885.7562,3270.1,13174.82,34308.91,33682.11,24559.26,28135.92,12913.42,8536.77
1389885.7582,3773.26,13234.52,34292.89,33639.63,24539.9,28153.28,13027.19,8560.32
1389885.7602,3991.8,13287.4,34275.25,33585.03,24525.45,28161.48,13121.03,8566.52
1389885.7622,3873.87,13325.5,34245.35,33546.98,24505.81,28143.6,13155.18,8550.64
1389885.7642,3312.25,13298.8,34227.76,33540.01,24513.92,28104.45,13082.08,8547.5
1389885.7662,2703.62,13217.64,34232.53,33555.89,24545.58,28068.83,12941.08,8564.28
1389885.7682,2408.79,13128.66,34244.11,33576.16,24567.61,28046.95,12816.1,8574.39
1389885.7702,2620.75,13113.5,34262.95,33593.71,24567.56,28064.3,12792.3,8574.96
1389885.7722,3062.01,13137.53,34284.79,33614.11,24562.65,28104.02,12860.97,8567.0
1389885.7742,3626.59,13214.64,34292.23,33643.54,24552.11,28148.42,12992.29,8542.11
1389885.7762,3964.81,13285.83,34281.31,33632.43,24533.18,28169.59,13106.68,8535.43
1389885.7782,3972.39,13327.03,34252.74,33600.62,24506.76,28162.77,13163.81,8515.93
1389885.7802,3533.79,13314.44,34230.05,33584.55,24493.13,28119.19,13112.83,8507.54
1389885.7822,2894.21,13242.77,34236.58,33586.74,24512.15,28071.31,12982.32,8532.0
1389885.7842,2455.62,13151.6,34260.13,33611.35,24549.44,28052.76,12853.86,8566.29
1389885.7862,2526.09,13118.55,34282.5,33634.57,24565.65,28065.26,12804.94,8565.47
1389885.7882,2898.6,13118.13,34286.26,33633.9,24561.79,28095.92,12836.17,8550.79
1389885.7902,3439.47,13170.67,34287.65,33628.04,24546.77,28132.78,12933.78,8540.92
1389885.7922,3864.1,13242.77,34272.82,33617.02,24523.21,28156.0,13055.18,8523.61
1389885.7942,4012.3,13306.67,34254.94,33617.74,24505.76,28164.82,13144.16,8495.19
1389885.7962,3728.29,13325.26,34238.87,33609.44,24496.22,28137.5,13141.78,8484.27
1389885.7982,3103.26,13274.58,34229.04,33597.76,24504.0,28089.67,13032.82,8506.97
1389885.8002,2535.53,13177.68,34240.39,33608.97,24525.22,28058.63,12884.86,8541.92
1389885.8022,2451.94,13130.0,34269.77,33641.34,24556.02,28063.92,12803.84,8577.16
1389885.8042,2753.69,13126.28,34283.21,33642.49,24562.79,28093.58,12814.95,8585.74
1389885.8062,3254.56,13159.61,34283.79,33632.95,24548.53,28127.82,12904.22,8561.33
1389885.8082,3757.14,13232.66,34279.3,33624.89,24527.46,28163.39,13032.68,8527.61
1389885.8102,4026.94,13301.42,34270.1,33612.92,24507.48,28186.28,13146.93,8504.77
1389885.8122,3884.36,13332.32,34255.56,33603.05,24494.65,28161.77,13173.96,8494.66
1389885.8142,3344.58,13306.05,34247.35,33597.52,24494.79,28109.6,13088.08,8500.62
1389885.8162,2695.37,13206.05,34243.97,33584.03,24505.62,28056.86,12922.62,8517.27
1389885.8182,2433.4,13133.1,34254.75,33594.66,24525.12,28048.18,12812.76,8538.1
1389885.8202,2620.32,13118.79,34272.58,33609.63,24543.29,28077.13,12807.28,8554.03
1389885.8222,3087.23,13147.36,34281.88,33612.4,24543.53,28115.51,12872.75,8548.07
1389885.8242,3613.95,13211.68,34278.92,33606.49,24530.75,28152.28,12980.65,8532.33
1389885.8262,3985.83,13295.22,34268.05,33597.57,24514.73,28191.28,13106.87,8514.02
1389885.8282,3994.99,13350.68,34257.94,33589.27,24504.86,28221.8,13187.55,8492.38
1389885.8302,3589.25,13344.34,34237.72,33580.64,24491.6,28194.29,13145.5,8483.27
1389885.8322,2904.84,13261.89,34229.19,33580.02,24495.89,28139.98,13005.83,8503.72
1389885.8342,2472.07,13167.43,34239.34,33592.13,24515.11,28087.14,12860.01,8528.66
1389885.8362,2518.51,13134.39,34265.95,33616.21,24537.52,28078.27,12807.37,8545.02
1389885.8382,2905.99,13131.19,34267.62,33610.78,24529.17,28069.17,12833.5,8538.06
1389885.8402,3418.02,13180.11,34265.09,33606.91,24514.01,28097.35,12934.69,8524.09
1389885.8422,3885.79,13266.85,34266.0,33607.68,24501.95,28146.37,13069.92,8507.35
1389885.8442,4021.12,13328.7,34253.03,33596.33,24485.07,28167.25,13162.57,8482.84
1389885.8462,3760.39,13354.3,34239.11,33591.85,24478.77,28156.33,13163.38,8471.92
1389885.8482,3129.05,13313.96,34244.54,33605.48,24497.61,28125.15,13066.91,8493.0
1389885.8502,2574.87,13211.73,34254.36,33620.84,24520.4,28090.15,12919.86,8509.49
1389885.8522,2450.56,13137.87,34259.13,33625.65,24530.89,28059.68,12816.96,8517.5
1389885.8542,2746.87,13121.32,34270.1,33619.41,24530.6,28073.7,12810.37,8517.41
1389885.8562,3252.75,13166.43,34282.74,33618.74,24530.03,28117.8,12898.35,8520.51
1389885.8582,3762.29,13240.86,34278.11,33605.1,24514.11,28154.19,13026.33,8513.5
1389885.8602,4022.07,13311.29,34255.17,33580.59,24487.21,28167.78,13138.92,8488.08
1389885.8622,3890.18,13341.62,34230.28,33569.72,24472.38,28157.76,13169.77,8469.2
1389885.8642,3349.16,13321.12,34224.66,33571.15,24481.16,28115.56,13091.23,8472.25
1389885.8662,2701.43,13224.51,34232.29,33574.16,24505.62,28070.02,12946.99,8502.96
1389885.8682,2427.01,13144.69,34253.51,33587.65,24530.03,28053.95,12831.36,8534.77
1389885.8702,2615.98,13123.9,34279.4,33611.11,24548.87,28077.89,12807.66,8550.22
1389885.8722,3086.0,13150.03,34286.12,33616.02,24541.43,28116.37,12875.99,8542.35
1389885.8742,3608.61,13210.49,34284.31,33609.92,24526.93,28158.81,12991.72,8525.09
1389885.8762,3985.36,13291.27,34271.05,33591.94,24500.75,28190.9,13119.75,8488.75
1389885.8782,3973.72,13328.36,34251.98,33569.24,24473.24,28170.02,13176.82,8462.1
1389885.8802,3581.33,13335.66,34244.68,33581.69,24464.8,28134.87,13140.44,8466.72
1389885.8822,2888.35,13250.5,34238.39,33599.57,24474.15,28073.93,12991.0,8484.79
1389885.8842,2473.69,13164.52,34252.08,33614.59,24504.14,28042.46,12852.81,8516.17
1389885.8862,2508.35,13133.24,34282.12,33640.34,24536.18,28066.35,12801.12,8543.06
1389885.8882,2921.25,13146.93,34287.79,33632.76,24540.19,28102.4,12845.09,8542.68
1389885.8902,3427.22,13194.04,34282.83,33614.4,24529.89,28145.36,12947.99,8532.48
1389885.8922,3897.76,13275.48,34266.38,33600.0,24504.14,28166.35,13075.54,8508.3
1389885.8942,4008.63,13322.4,34245.92,33579.73,24482.54,28163.2,13155.08,8487.13
1389885.8962,3755.76,13337.76,34223.13,33558.75,24467.14,28132.11,13149.98,8475.35
1389885.8982,3099.49,13282.4,34219.94,33566.19,24476.96,28089.72,13038.83,8490.37
1389885.9002,2574.35,13195.23,34242.68,33601.57,24508.62,28063.16,12901.21,8507.97
1389885.9022,2424.43,13124.99,34259.7,33625.03,24530.08,28058.63,12807.47,8511.69
1389885.9042,2756.5,13125.42,34287.5,33637.81,24533.99,28090.53,12822.87,8522.65
1389885.9062,3241.78,13160.56,34299.04,33629.23,24522.07,28130.44,12908.27,8525.04
1389885.9082,3786.9,13242.06,34290.51,33611.49,24500.9,28168.59,13037.3,8513.17
1389885.9102,4008.58,13300.13,34262.38,33581.45,24473.91,28170.78,13137.06,8489.71
1389885.9122,3910.49,13337.23,34237.63,33568.1,24463.47,28156.67,13174.68,8477.5
1389885.9143,3340.29,13303.85,34224.09,33562.85,24471.33,28118.38,13091.76,8483.41
1389885.9163,2710.63,13209.11,34232.29,33578.92,24499.94,28075.32,12943.65,8508.35
1389885.9183,2404.5,13122.51,34249.02,33600.0,24535.37,28043.94,12822.34,8532.43
1389885.9203,2617.07,13099.96,34259.99,33614.69,24545.0,28060.87,12804.32,8533.43
1389885.9223,3060.82,13123.9,34262.85,33611.11,24534.8,28103.88,12867.83,8519.79
1389885.9243,3616.19,13201.14,34265.71,33606.1,24519.21,28149.51,12993.05,8512.31
1389885.9263,3981.78,13289.26,34262.85,33597.76,24505.81,28182.13,13125.33,8503.72
1389885.9283,4016.21,13340.33,34248.98,33589.99,24488.55,28182.61,13190.94,8490.56
1389885.9303,3579.24,13332.61,34232.43,33587.08,24478.63,28146.46,13146.12,8484.65
1389885.9323,2901.7,13243.49,34227.9,33592.51,24491.46,28093.63,13004.02,8503.68
1389885.9343,2456.33,13149.31,34243.54,33615.93,24515.73,28063.83,12857.58,8520.65
1389885.9363,2513.93,13116.89,34268.53,33646.49,24534.85,28081.71,12800.17,8537.34
1389885.9383,2913.62,13132.57,34285.79,33648.73,24540.86,28124.38,12842.28,8547.59
1389885.9403,3448.39,13181.97,34293.27,33627.56,24535.56,28161.0,12947.85,8545.83
1389885.9423,3908.78,13261.42,34278.35,33601.19,24513.1,28179.6,13073.88,8526.85
1389885.9443,4035.76,13317.68,34259.23,33581.4,24495.75,28174.88,13158.08,8507.44
1389885.9463,3784.32,13352.73,34251.41,33585.6,24495.41,28152.42,13166.62,8501.91
1389885.9483,3133.01,13290.31,34243.3,33586.36,24504.71,28096.92,13049.94,8504.96
1389885.9503,2569.15,13188.84,34239.15,33593.94,24519.73,28055.29,12897.02,8514.07
1389885.9523,2433.2,13127.28,34261.47,33623.89,24543.57,28057.72,12806.56,8540.68
1389885.9543,2756.45,13123.18,34275.35,33631.9,24544.96,28085.04,12814.9,8546.45
1389885.9563,3246.64,13156.61,34281.88,33625.8,24532.85,28128.44,12899.07,8540.58
1389885.9583,3775.02,13242.2,34275.68,33615.88,24512.44,28172.88,13032.39,8522.94
1389885.9603,4015.64,13308.43,34259.51,33598.62,24490.17,28201.54,13144.45,8500.29
1389885.9623,3916.55,13351.73,34246.69,33590.46,24473.67,28189.38,13188.79,8481.55
1389885.9643,3357.22,13325.12,34240.54,33593.71,24480.01,28142.26,13114.74,8480.55
1389885.9663,2723.74,13234.86,34244.64,33610.92,24500.66,28073.03,12963.82,8490.04
1389885.9683,2410.94,13137.15,34251.98,33627.37,24518.25,28049.57,12832.36,8504.3
1389885.9703,2621.56,13121.27,34272.1,33635.38,24531.94,28071.79,12807.28,8527.52
1389885.9723,3053.33,13139.44,34281.69,33626.61,24531.65,28102.07,12866.45,8531.05
1389885.9743,3613.23,13210.11,34279.16,33613.54,24517.73,28136.97,12982.23,8520.94
1389885.9763,3983.59,13297.42,34282.78,33603.58,24509.48,28179.65,13114.88,8513.02
1389885.9783,4022.03,13354.06,34268.91,33593.61,24496.51,28185.7,13191.84,8489.99
1389885.9803,3586.48,13347.82,34249.93,33587.98,24493.84,28148.32,13145.16,8488.32
1389885.9823,2922.06,13265.75,34242.35,33589.27,24506.52,28091.0,12999.92,8508.87
1389885.9843,2457.33,13160.95,34248.74,33600.38,24529.03,28058.58,12856.53,8530.81
1389885.9863,2510.4,13124.75,34270.24,33621.51,24543.0,28068.74,12802.32,8554.17
1389885.9883,2888.11,13130.62,34279.97,33620.46,24539.86,28097.44,12843.8,8562.71
1389885.9903,3442.81,13188.98,34287.6,33615.16,24531.89,28134.54,12946.89,8554.79
1389885.9923,3879.69,13260.03,34274.68,33594.23,24503.19,28159.29,13059.09,8527.28
1389885.9943,4024.32,13310.29,34236.86,33564.14,24463.75,28155.76,13138.53,8491.99
1389885.9963,3750.71,13338.14,34223.66,33571.34,24460.18,28139.64,13147.5,8481.31
1389885.9983,3127.05,13284.16,34211.26,33577.68,24467.04,28090.05,13034.2,8482.41
1389886.0003,2546.07,13186.98,34225.23,33595.14,24499.09,28071.45,12893.63,8507.73
1389886.0023,2437.97,13129.62,34255.22,33618.17,24525.12,28082.52,12809.23,8530.81
1389886.0043,2737.09,13122.46,34276.68,33629.8,24538.04,28104.55,12822.3,8537.15
1389886.0063,3254.99,13166.81,34291.56,33639.1,24538.81,28147.51,12913.85,8529.95
1389886.0083,3764.44,13243.25,34289.46,33627.9,24522.74,28183.89,13033.58,8512.88
1389886.0103,4042.96,13318.59,34274.63,33600.53,24499.75,28195.34,13145.64,8500.05
1389886.0123,3923.08,13362.93,34258.99,33584.84,24484.3,28183.13,13195.18,8491.14
1389886.0143,3382.83,13334.8,34247.74,33579.88,24486.54,28141.69,13114.79,8491.66
1389886.0163,2726.84,13238.34,34257.46,33594.56,24511.24,28107.65,12964.77,8514.55
1389886.0183,2451.18,13164.43,34276.58,33624.37,24540.52,28098.16,12846.52,8551.79
1389886.0203,2622.8,13133.96,34280.97,33628.56,24543.43,28104.88,12811.61,8552.22
1389886.0223,3081.04,13154.03,34284.31,33622.94,24536.76,28127.67,12868.22,8536.34
1389886.0243,3598.07,13208.44,34266.57,33595.85,24509.24,28141.31,12971.88,8503.01
1389886.0263,3973.53,13286.54,34249.93,33572.73,24484.49,28161.86,13093.62,8469.68
1389886.0283,3990.75,13344.24,34243.06,33567.53,24476.39,28169.21,13165.09,8470.82
1389886.0303,3590.73,13343.29,34235.62,33563.05,24473.29,28130.44,13120.41,8473.35
1389886.0323,2924.54,13270.43,34236.96,33576.54,24493.27,28090.77,12997.91,8495.62
1389886.0343,2491.19,13179.83,34258.51,33610.25,24526.84,28075.6,12867.55,8534.58
1389886.0363,2522.42,13139.34,34282.4,33636.0,24549.82,28080.99,12803.75,8548.98
1389886.0383,2911.04,13139.39,34288.27,33634.81,24547.39,28115.09,12836.46,8537.58
1389886.0403,3439.05,13193.28,34291.94,33633.28,24532.37,28159.34,12939.88,8531.76
1389886.0423,3900.19,13273.05,34289.41,33620.12,24504.86,28193.24,13069.77,8516.74
1389886.0443,4046.25,13336.37,34277.49,33603.67,24486.35,28191.71,13161.66,8501.91
1389886.0463,3793.76,13363.51,34261.66,33604.15,24485.92,28165.63,13167.53,8500.29
1389886.0483,3153.8,13314.06,34251.26,33598.57,24499.71,28117.85,13063.58,8509.45
1389886.0503,2577.4,13208.49,34258.13,33611.44,24531.84,28081.33,12907.13,8534.43
1389886.0523,2445.6,13136.77,34269.62,33625.27,24547.01,28068.59,12808.47,8546.26
1389886.0543,2745.77,13122.23,34278.25,33631.04,24549.3,28086.81,12809.8,8546.31
1389886.0563,3243.16,13164.52,34282.35,33626.47,24544.1,28123.67,12900.26,8536.72
1389886.0583,3762.01,13240.58,34280.4,33612.16,24529.75,28161.34,13026.43,8517.93
1389886.0603,4033.57,13312.72,34263.52,33589.18,24504.04,28173.07,13130.0,8494.33
1389886.0623,3904.82,13343.24,34243.83,33577.02,24485.83,28153.18,13156.18,8475.69
1389886.0643,3370.81,13321.45,34236.01,33574.2,24487.78,28116.37,13080.98,8482.5
1389886.0663,2724.7,13233.23,34249.83,33596.33,24517.97,28086.67,12944.89,8515.79
1389886.0683,2442.93,13159.66,34274.96,33626.75,24543.86,28069.36,12835.27,8546.21
1389886.0703,2607.87,13124.56,34287.17,33633.19,24548.44,28074.94,12803.17,8544.21
1389886.0723,3082.66,13153.03,34300.38,33640.2,24552.83,28110.94,12867.83,8545.64
1389886.0743,3616.0,13212.35,34297.14,33634.71,24537.47,28139.36,12977.84,8537.53
1389886.0763,3998.18,13297.32,34282.97,33615.74,24509.86,28168.49,13107.97,8517.08
1389886.0783,4010.49,13354.73,34272.67,33604.96,24497.8,28179.6,13187.89,8506.44
1389886.0803,3631.83,13371.47,34268.05,33611.44,24496.99,28151.9,13162.9,8505.01
1389886.0823,2933.07,13288.55,34264.95,33614.26,24506.48,28109.98,13025.43,8520.79
1389886.0843,2496.15,13190.41,34265.71,33621.03,24519.64,28081.18,12879.66,8542.92
1389886.0863,2494.38,13126.66,34269.19,33635.91,24525.88,28077.03,12800.7,8544.92
1389886.0883,2907.13,13128.71,34275.97,33636.29,24526.27,28103.55,12833.41,8535.58
1389886.0903,3404.52,13170.91,34279.3,33619.79,24521.64,28133.54,12928.63,8523.66
1389886.0923,3893.42,13259.22,34273.01,33596.95,24510.96,28158.62,13059.38,8502.68
1389886.0943,4021.65,13320.45,34261.61,33575.54,24500.42,28173.31,13157.56,8492.76
1389886.0963,3792.95,13358.21,34256.8,33573.68,24494.89,28160.24,13172.34,8492.38
1389886.0983,3128.29,13295.75,34246.88,33575.68,24499.23,28103.16,13049.75,8488.8
1389886.1003,2581.79,13194.51,34257.61,33595.14,24524.21,28069.45,12896.59,8511.64
1389886.1023,2426.2,13123.7,34282.88,33621.36,24555.16,28064.92,12795.26,8544.88
1389886.1043,2765.13,13138.2,34314.73,33651.07,24582.77,28103.64,12822.2,8577.3
1389886.1063,3255.22,13186.22,34328.66,33661.51,24589.73,28147.13,12914.56,8582.88
1389886.1083,3795.81,13260.75,34309.68,33642.15,24562.36,28179.46,13038.4,8553.32
1389886.1103,4017.5,13308.53,34268.91,33596.47,24509.24,28178.17,13133.34,8510.4
1389886.1123,3929.38,13354.26,34254.51,33585.22,24489.31,28172.4,13182.59,8497.76
1389886.1143,3368.95,13323.21,34239.53,33572.39,24488.07,28131.15,13103.15,8495.24
1389886.1163,2725.03,13215.92,34229.43,33566.57,24495.18,28080.8,12942.98,8500.72
1389886.1183,2394.77,13125.47,34245.45,33586.65,24519.92,28059.68,12813.14,8523.61
1389886.1203,2598.38,13105.3,34273.1,33610.73,24542.24,28078.65,12792.68,8540.01
1389886.1223,3050.14,13130.71,34290.65,33615.88,24546.44,28121.28,12860.25,8535.91
1389886.1243,3606.22,13203.15,34288.36,33612.26,24530.89,28150.56,12980.75,8519.46
1389886.1263,3972.96,13286.21,34270.96,33597.14,24504.04,28168.11,13103.58,8499.81
1389886.1283,4016.07,13343.96,34259.75,33590.51,24485.5,28179.27,13173.3,8491.47
1389886.1303,3605.99,13348.87,34245.21,33586.17,24483.73,28154.9,13144.16,8490.13
1389886.1323,2930.36,13265.52,34241.78,33593.37,24499.32,28110.32,13010.31,8502.53
1389886.1343,2474.83,13170.96,34261.52,33624.8,24531.27,28081.18,12875.27,8523.42
1389886.1363,2506.07,13121.56,34285.36,33651.17,24557.12,28088.57,12805.27,8541.63
1389886.1383,2896.79,13128.57,34296.61,33643.54,24561.93,28122.0,12838.17,8550.26
1389886.1403,3435.47,13181.45,34304.58,33635.52,24558.45,28172.35,12951.33,8552.7
1389886.1423,3918.03,13268.81,34302.52,33625.89,24542.86,28201.11,13083.94,8540.44
1389886.1443,4064.23,13330.99,34292.13,33617.64,24528.74,28205.06,13178.49,8520.41
1389886.1463,3818.75,13365.46,34280.97,33610.3,24514.3,28180.08,13191.51,8501.05
1389886.1483,3161.1,13301.04,34269.67,33596.28,24510.39,28123.86,13069.97,8484.17
1389886.1503,2581.07,13191.42,34267.81,33598.95,24524.41,28075.36,12906.31,8504.2
1389886.1523,2413.23,13104.63,34271.96,33614.5,24533.47,28053.81,12785.2,8533.62
1389886.1543,2712.97,13089.13,34275.68,33612.45,24529.08,28066.07,12785.25,8536.24
1389886.1563,3201.29,13123.7,34277.63,33598.0,24525.07,28107.6,12876.94,8515.65
1389886.1583,3760.82,13226.65,34284.17,33593.42,24521.5,28164.06,13027.62,8504.87
1389886.1603,4015.97,13296.65,34266.24,33565.91,24497.99,28179.46,13139.06,8487.23
1389886.1623,3929.57,13340.43,34251.41,33554.32,24482.68,28160.58,13176.49,8472.73
1389886.1643,3376.34,13321.74,34255.65,33567.81,24496.13,28130.68,13105.35,8480.74
1389886.1663,2727.7,13221.69,34249.21,33572.58,24518.45,28089.43,12951.57,8506.11
1389886.1683,2392.01,13119.41,34256.18,33585.27,24543.43,28067.4,12815.14,8532.95
1389886.1703,2589.8,13095.29,34276.2,33609.35,24556.12,28088.19,12787.96,8540.87
1389886.1723,3041.65,13127.23,34296.61,33623.03,24561.79,28139.4,12864.21,8543.83
1389886.1743,3618.48,13206.72,34297.04,33624.13,24549.44,28186.85,12990.14,8528.9
1389886.1763,3987.22,13286.54,34273.91,33605.44,24524.98,28200.44,13118.41,8508.44
1389886.1783,4044.49,13350.68,34259.37,33593.47,24510.1,28185.18,13198.81,8498.0
1389886.1803,3613.38,13345.91,34241.39,33576.35,24502.57,28158.62,13157.37,8492.61
1389886.1823,2937.27,13260.99,34231.62,33564.48,24511.48,28111.03,13009.36,8502.91
1389886.1843,2448.13,13147.55,34239.11,33572.11,24537.8,28059.96,12846.95,8524.94
1389886.1863,2468.35,13090.56,34242.82,33581.79,24542.24,28047.95,12771.66,8526.23
1389886.1883,2846.67,13095.33,34259.08,33590.27,24542.86,28092.01,12814.33,8530.38
1389886.1903,3418.4,13164.66,34276.63,33600.19,24537.61,28137.59,12935.07,8530.09
1389886.1923,3892.14,13257.7,34278.3,33596.09,24525.03,28168.35,13070.06,8517.08
1389886.1943,4068.09,13329.17,34264.62,33583.22,24507.24,28179.46,13175.3,8498.0
1389886.1963,3790.76,13347.2,34247.69,33567.53,24493.46,28151.23,13175.44,8478.98
1389886.1983,3156.71,13294.84,34243.87,33571.87,24502.9,28102.26,13051.65,8489.37
1389886.2003,2562.09,13196.28,34266.91,33597.19,24538.66,28089.48,12911.66,8525.56
1389886.2023,2421.9,13117.27,34282.88,33614.07,24551.06,28085.38,12806.56,8541.54
1389886.2043,2695.61,13088.94,34280.21,33606.87,24544.1,28087.76,12790.97,8534.24
1389886.2063,3226.47,13137.01,34289.32,33607.63,24543.0,28121.95,12889.05,8527.8
1389886.2083,3761.39,13227.89,34292.32,33603.24,24529.03,28162.44,13025.95,8516.12
1389886.2103,4068.04,13320.92,34288.7,33594.37,24512.68,28190.76,13152.17,8505.63
1389886.2123,3957.18,13365.84,34273.44,33590.27,24504.71,28181.6,13192.94,8491.42
1389886.2143,3415.06,13340.71,34261.99,33599.91,24509.43,28134.83,13117.31,8486.94
1389886.2163,2727.18,13230.33,34258.04,33607.11,24519.35,28075.27,12957.53,8489.9
1389886.2183,2405.55,13132.72,34269.77,33628.13,24533.61,28045.23,12818.67,8498.62
1389886.2203,2563.72,13096.76,34286.55,33636.34,24543.48,28053.43,12770.89,8518.36
1389886.2223,3037.74,13124.8,34300.81,33635.19,24549.44,28100.68,12839.37,8543.78
1389886.2243,3602.27,13207.15,34306.2,33628.32,24544.67,28150.37,12971.78,8548.12
1389886.2263,4009.15,13296.75,34293.23,33599.05,24523.69,28176.98,13108.4,8527.28
1389886.2283,4034.47,13352.06,34278.02,33577.35,24516.73,28178.5,13181.35,8510.02
1389886.2303,3627.54,13357.88,34266.43,33576.16,24519.45,28137.73,13144.88,8503.01
1389886.2323,2940.56,13285.54,34264.95,33590.18,24537.18,28096.15,13016.8,8517.7
1389886.2343,2471.88,13175.97,34278.59,33612.21,24556.21,28070.5,12867.98,8546.31
1389886.2363,2471.4,13114.98,34294.37,33628.18,24566.75,28061.39,12777.85,8561.52
1389886.2383,2870.85,13122.8,34307.53,33635.57,24568.37,28093.77,12806.8,8567.1
1389886.2403,3413.92,13184.36,34303.34,33626.04,24544.77,28124.72,12916.66,8556.41
1389886.2423,3891.8,13265.99,34286.22,33615.07,24509.34,28141.31,13046.41,8527.57
1389886.2443,4058.31,13339.81,34273.72,33601.05,24494.89,28151.18,13155.84,8515.26
1389886.2463,3821.09,13379.43,34276.87,33602.05,24505.71,28144.51,13172.2,8517.7
1389886.2483,3182.89,13332.8,34276.68,33610.49,24527.36,28105.17,13069.2,8533.29
1389886.2503,2578.93,13219.5,34280.69,33626.51,24555.11,28069.07,12913.8,8558.23
1389886.2523,2420.62,13137.96,34288.7,33640.67,24574.9,28057.34,12806.89,8572.63
1389886.2543,2708.91,13117.6,34297.85,33645.59,24580.58,28082.18,12806.08,8575.15
1389886.2563,3220.51,13157.89,34302.19,33645.68,24572.47,28122.0,12897.4,8566.91
1389886.2583,3742.41,13229.75,34293.27,33627.42,24547.48,28152.61,13020.76,8539.96
1389886.2603,4039.24,13314.06,34274.73,33609.54,24518.92,28165.92,13134.29,8511.4
1389886.2623,3927.76,13354.4,34256.84,33603.72,24500.47,28153.28,13179.3,8488.7
1389886.2643,3380.78,13325.79,34245.54,33593.32,24490.03,28108.17,13102.68,8470.2
1389886.2663,2703.24,13221.98,34250.5,33588.89,24501.66,28069.69,12946.42,8467.01
1389886.2683,2408.08,13143.68,34269.86,33615.45,24534.85,28065.68,12827.92,8506.35
1389886.2703,2571.01,13119.51,34297.66,33636.29,24560.84,28088.67,12801.84,8551.65
1389886.2723,3048.9,13151.79,34313.83,33638.2,24566.13,28119.19,12866.64,8566.91
1389886.2743,3584.67,13211.78,34295.71,33615.4,24544.34,28142.55,12977.41,8548.17
1389886.2763,3998.66,13303.52,34272.1,33595.95,24521.64,28163.48,13111.74,8525.23
1389886.2783,4023.31,13362.17,34259.32,33592.23,24511.96,28176.02,13191.75,8519.08
1389886.2803,3642.23,13381.86,34253.17,33599.38,24512.82,28155.19,13170.77,8520.7
1389886.2823,2939.75,13296.03,34252.41,33601.1,24526.07,28113.85,13032.58,8531.71
1389886.2843,2476.88,13183.5,34260.28,33609.06,24543.77,28084.66,12881.38,8544.49
1389886.2863,2464.68,13114.64,34272.72,33614.73,24553.16,28076.8,12798.5,8553.17
1389886.2883,2873.8,13116.41,34277.3,33609.35,24548.91,28096.49,12827.54,8542.01
1389886.2903,3391.93,13169.24,34280.26,33602.0,24540.0,28135.11,12930.63,8527.76
1389886.2923,3905.68,13271.91,34285.69,33606.2,24532.32,28173.12,13074.54,8519.79
1389886.2943,4048.4,13335.56,34271.2,33590.94,24513.2,28182.7,13169.62,8506.59
1389886.2963,3821.23,13363.98,34254.98,33583.31,24494.75,28155.28,13175.78,8493.42
1389886.2983,3139.88,13303.81,34250.74,33590.85,24504.14,28106.6,13062.34,8501.82
1389886.3003,2571.73,13200.05,34260.28,33616.26,24532.89,28077.65,12911.51,8529.81
1389886.3023,2390.77,13118.6,34275.2,33636.86,24553.97,28074.22,12806.94,8553.17
1389886.3043,2709.58,13110.88,34286.36,33646.21,24563.22,28106.36,12817.34,8555.6
1389886.3063,3208.83,13159.42,34298.09,33650.64,24568.04,28148.65,12917.0,8555.03
1389886.3083,3763.15,13236.48,34282.78,33623.51,24536.09,28158.72,13043.83,8527.33
1389886.3103,4026.79,13309.34,34263.42,33595.71,24502.14,28160.38,13145.5,8490.37
1389886.3123,3945.97,13353.78,34254.84,33589.18,24489.79,28155.52,13190.37,8470.63
1389886.3143,3389.45,13333.51,34253.08,33596.9,24496.84,28118.85,13121.8,8483.55
1389886.3163,2739.48,13238.62,34261.85,33608.06,24521.35,28077.41,12967.49,8507.54
1389886.3183,2401.02,13149.79,34286.69,33626.85,24554.3,28069.69,12841.27,8541.63
1389886.3203,2582.74,13123.7,34306.96,33642.11,24573.76,28089.91,12812.9,8564.57
1389886.3223,3021.38,13135.43,34303.19,33624.8,24561.55,28106.84,12859.58,8552.98
1389886.3243,3585.72,13202.67,34294.9,33612.54,24547.15,28140.12,12975.36,8535.43
1389886.3263,3962.61,13284.16,34273.44,33592.23,24525.6,28165.06,13103.87,8512.45
1389886.3283,4016.07,13341.05,34260.47,33575.73,24513.3,28168.49,13176.11,8493.85
1389886.3303,3621.29,13351.92,34250.41,33574.87,24513.3,28138.12,13143.45,8499.0
1389886.3323,2930.93,13264.56,34246.45,33581.69,24527.84,28088.72,13006.59,8522.37
1389886.3343,2457.29,13164.33,34260.47,33603.34,24550.82,28057.82,12864.4,8552.79
1389886.3363,2465.63,13106.97,34273.96,33618.98,24561.31,28066.35,12795.93,8562.04
1389886.3383,2863.07,13117.7,34291.56,33629.8,24565.99,28092.53,12832.07,8565.0
1389886.3403,3398.13,13174.44,34303.34,33633.19,24563.41,28126.29,12932.87,8559.9
1389886.3423,3897.0,13276.05,34298.14,33628.28,24549.44,28162.01,13082.22,8545.26
1389886.3443,4070.71,13350.2,34290.99,33626.27,24536.42,28183.18,13184.84,8533.29
1389886.3463,3836.63,13386.35,34277.97,33623.84,24523.79,28161.72,13193.32,8517.41
1389886.3483,3167.68,13318.49,34266.38,33608.73,24525.36,28109.51,13073.88,8512.16
1389886.3503,2585.75,13207.34,34272.48,33613.5,24546.24,28073.08,12918.28,8534.24
1389886.3523,2402.12,13116.74,34276.39,33624.56,24558.26,28058.96,12805.27,8552.36
1389886.3543,2694.08,13093.85,34273.96,33613.64,24553.25,28068.36,12796.31,8547.59
1389886.3563,3190.66,13132.05,34284.98,33614.83,24550.58,28108.46,12882.66,8544.88
1389886.3583,3749.66,13223.22,34279.3,33608.44,24529.36,28146.75,13018.42,8520.18
1389886.3603,4011.06,13294.7,34259.28,33583.31,24505.67,28161.2,13127.9,8496.71
1389886.3623,3939.58,13348.53,34246.64,33573.11,24491.6,28158.33,13181.97,8484.89
1389886.3643,3390.6,13324.88,34246.11,33579.54,24500.75,28127.15,13104.77,8492.14
1389886.3663,2743.48,13228.13,34252.36,33587.6,24523.69,28082.37,12952.23,8510.16
1389886.3683,2388.62,13129.24,34273.2,33610.16,24554.97,28062.25,12824.49,8541.49
1389886.3703,2578.54,13105.44,34289.79,33627.94,24564.27,28070.5,12789.54,8555.37
1389886.3723,3022.19,13124.85,34292.89,33628.04,24561.07,28098.97,12845.18,8555.46
1389886.3743,3596.12,13200.09,34293.7,33621.36,24547.29,28137.88,12970.88,8544.59
1389886.3763,3973.63,13284.35,34288.93,33608.2,24527.41,28173.35,13104.11,8525.85
1389886.3783,4045.63,13355.54,34284.64,33599.57,24517.68,28180.17,13192.27,8517.93
1389886.3803,3633.69,13356.5,34274.77,33586.41,24505.9,28149.08,13160.66,8504.34
1389886.3823,2947.86,13268.04,34259.28,33589.56,24507.0,28100.54,13019.13,8491.66
1389886.3843,2444.65,13156.08,34263.09,33613.88,24531.32,28068.07,12867.98,8493.81
1389886.3863,2487.33,13119.99,34290.6,33656.36,24556.93,28082.99,12804.27,8510.3
1389886.3883,2870.61,13124.61,34307.2,33660.23,24566.27,28124.86,12842.42,8543.68
1389886.3903,3428.32,13184.12,34316.88,33636.38,24558.12,28159.19,12955.24,8559.37
1389886.3923,3906.82,13278.92,34320.88,33617.88,24551.44,28193.38,13094.81,8560.23
1389886.3943,4097.75,13352.82,34297.9,33600.14,24537.47,28217.13,13203.05,8538.1
1389886.3963,3836.3,13382.96,34277.78,33591.08,24529.98,28193.14,13208.3,8529.19
1389886.3983,3202.87,13329.32,34265.71,33589.65,24533.42,28137.59,13094.0,8526.04
1389886.4003,2598.14,13222.51,34277.25,33607.01,24564.75,28108.41,12946.99,8553.12
1389886.4023,2445.17,13154.13,34303.34,33638.43,24595.93,28104.36,12844.37,8581.31
1389886.4043,2720.98,13127.81,34310.96,33637.48,24597.79,28120.23,12838.56,8580.97
1389886.4063,3253.51,13180.35,34328.37,33645.11,24596.79,28171.26,12935.54,8584.07
1389886.4083,3793.62,13274.53,34335.47,33643.44,24585.92,28216.99,13072.49,8575.73
1389886.4103,4081.87,13341.81,34310.06,33611.97,24552.44,28227.52,13177.49,8539.44
1389886.4123,3968.95,13370.32,34275.2,33584.93,24519.68,28212.36,13209.39,8507.54
1389886.4143,3431.51,13342.86,34253.41,33577.49,24509.15,28167.2,13130.38,8497.24
1389886.4163,2752.59,13247.21,34260.56,33591.66,24532.85,28111.99,12977.55,8521.13
1389886.4183,2432.63,13161.37,34285.6,33622.89,24567.42,28076.37,12848.81,8551.26
1389886.4203,2584.27,13125.61,34293.56,33634.05,24567.8,28067.88,12806.32,8553.98
1389886.4223,3038.55,13143.25,34299.52,33627.99,24552.63,28105.83,12867.74,8546.97
1389886.4243,3581.95,13207.63,34293.94,33608.77,24533.32,28146.08,12987.66,8528.14
1389886.4263,3987.12,13289.6,34282.21,33593.94,24508.62,28147.13,13101.29,8507.68
1389886.4283,4039.81,13361.03,34278.4,33603.58,24499.61,28162.01,13189.75,8501.91
1389886.4303,3644.28,13370.32,34270.82,33617.02,24498.27,28142.26,13165.52,8498.62
1389886.4323,2946.52,13284.26,34262.18,33621.84,24517.83,28093.48,13020.61,8511.26
1389886.4343,2461.62,13171.1,34263.57,33623.27,24549.87,28059.01,12861.35,8537.72
1389886.4363,2464.1,13115.6,34275.68,33626.23,24568.27,28048.14,12781.96,8552.41
1389886.4383,2862.17,13125.42,34298.9,33635.76,24580.39,28083.18,12822.92,8563.66
1389886.4403,3413.53,13194.47,34315.21,33631.23,24581.63,28142.74,12947.51,8560.61
1389886.4423,3900.19,13273.43,34301.62,33607.49,24550.25,28169.35,13070.06,8529.52
1389886.4443,4062.61,13342.24,34280.69,33591.61,24527.6,28174.93,13168.43,8503.96
1389886.4463,3816.18,13363.65,34262.9,33589.89,24516.16,28147.94,13174.58,8495.38
1389886.4483,3175.02,13310.58,34252.98,33592.47,24519.64,28101.83,13067.39,8502.1
1389886.4503,2563.81,13200.52,34260.71,33605.15,24540.9,28067.35,12913.51,8524.61
1389886.4523,2396.3,13127.61,34279.59,33625.32,24564.41,28063.35,12807.7,8539.82
1389886.4543,2689.65,13114.98,34297.8,33641.49,24573.9,28093.68,12805.61,8544.35
1389886.4563,3211.55,13158.66,34308.01,33641.39,24563.74,28135.73,12894.68,8552.41
1389886.4583,3732.87,13233.47,34299.52,33628.52,24535.56,28162.53,13018.75,8544.73
1389886.4603,4054.4,13327.41,34294.04,33616.21,24511.24,28178.6,13144.35,8529.38
1389886.4623,3962.9,13376.14,34287.31,33613.07,24505.09,28176.79,13195.18,8518.51
1389886.4643,3433.18,13355.4,34274.39,33603.62,24509.15,28130.01,13122.37,8515.45
1389886.4663,2742.39,13246.54,34270.39,33612.16,24529.41,28088.53,12968.45,8528.62
1389886.4683,2413.85,13150.26,34278.92,33627.42,24550.49,28071.79,12839.94,8542.16
1389886.4703,2560.09,13113.45,34300.33,33644.78,24566.61,28091.91,12802.6,8550.12
1389886.4723,3031.06,13136.58,34309.87,33659.89,24565.56,28125.19,12867.4,8548.4
1389886.4743,3579.19,13206.91,34305.86,33657.89,24554.88,28150.28,12981.61,8539.77
1389886.4763,4004.67,13302.52,34290.37,33632.14,24537.85,28165.53,13112.4,8514.83
1389886.4783,4026.7,13350.77,34266.29,33591.18,24515.11,28158.62,13182.59,8503.87
1389886.4803,3647.95,13358.93,34252.27,33572.01,24511.82,28128.91,13154.17,8507.35
1389886.4823,2949.62,13287.83,34256.99,33590.03,24539.04,28098.59,13028.91,8536.01
1389886.4843,2477.79,13182.64,34264.19,33604.53,24556.97,28066.59,12878.37,8553.03
1389886.4863,2440.36,13116.36,34279.49,33616.31,24560.31,28060.92,12793.49,8550.88
1389886.4883,2857.49,13125.18,34295.8,33625.51,24553.4,28098.25,12835.98,8544.4
1389886.4903,3384.3,13175.49,34297.52,33622.17,24546.15,28142.98,12936.78,8541.82
1389886.4923,3901.91,13280.44,34288.65,33616.31,24534.18,28188.38,13080.22,8535.53
1389886.4943,4053.83,13351.39,34270.1,33597.04,24518.16,28192.95,13185.07,8520.03
1389886.4963,3838.83,13384.25,34256.13,33587.98,24506.33,28169.68,13195.75,8508.4
1389886.4983,3180.93,13333.94,34256.51,33588.79,24521.4,28131.11,13091.8,8519.08
1389886.5003,2581.12,13215.54,34253.41,33593.71,24531.42,28080.47,12925.53,8527.95
1389886.5023,2388.1,13132.14,34274.63,33619.22,24550.39,28074.65,12819.82,8536.29
1389886.5043,2706.72,13129.33,34300.62,33638.29,24561.12,28087.38,12824.06,8537.67
1389886.5063,3193.95,13167.76,34308.77,33641.63,24553.35,28125.48,12910.89,8537.72
1389886.5083,3759.15,13250.07,34303.96,33629.33,24527.79,28159.53,13034.11,8526.28
1389886.5103,4048.92,13335.56,34293.66,33609.92,24516.54,28186.18,13160.99,8516.5
1389886.5123,3986.41,13393.36,34283.07,33608.2,24514.01,28191.81,13222.98,8511.26
1389886.5143,3425.17,13368.37,34265.95,33602.19,24517.49,28147.03,13141.35,8508.87
1389886.5163,2761.08,13264.75,34269.81,33614.5,24540.14,28095.68,12983.28,8527.71
1389886.5183,2404.36,13164.47,34283.59,33638.05,24567.7,28079.56,12858.54,8552.74
1389886.5203,2555.51,13117.98,34295.56,33646.49,24571.9,28079.66,12811.76,8556.7
1389886.5223,3012.37,13146.83,34313.64,33644.39,24573.14,28120.04,12875.61,8564.14
1389886.5243,3588.82,13218.17,34322.31,33628.23,24559.55,28148.94,12994.43,8549.21
1389886.5263,3986.98,13299.99,34298.95,33599.67,24526.17,28165.53,13120.84,8508.73
1389886.5283,4044.91,13362.12,34276.82,33589.8,24512.91,28188.95,13207.82,8494.47
1389886.5303,3664.4,13379.53,34266.19,33592.42,24516.54,28170.64,13191.13,8503.87
1389886.5323,2973.75,13295.65,34257.08,33596.28,24533.51,28122.0,13059.43,8517.22
1389886.5343,2475.64,13183.5,34261.61,33611.21,24548.68,28080.71,12900.07,8533.81
1389886.5363,2461.96,13118.65,34281.54,33632.62,24559.88,28078.75,12813.05,8547.31
1389886.5383,2848.29,13122.23,34291.65,33630.57,24551.82,28109.94,12843.47,8547.5
1389886.5403,3388.45,13175.35,34299.33,33625.42,24544.19,28150.23,12948.71,8545.92
1389886.5423,3893.66,13261.7,34290.7,33609.25,24522.98,28169.06,13075.64,8526.52
1389886.5443,4059.32,13328.74,34276.44,33590.27,24511.29,28166.25,13175.3,8508.59
1389886.5463,3842.69,13368.42,34258.04,33581.93,24503.04,28145.89,13186.89,8493.14
1389886.5483,3175.02,13303.95,34245.07,33577.73,24509.15,28104.55,13074.35,8496.14
1389886.5503,2574.35,13191.75,34248.4,33583.07,24522.83,28067.26,12913.04,8512.21
1389886.5523,2380.09,13109.64,34266.86,33604.77,24545.43,28050.52,12802.03,8530.62
1389886.5543,2697.04,13110.78,34293.04,33625.42,24559.83,28082.99,12813.52,8542.49
1389886.5563,3189.52,13144.3,34300.14,33626.42,24556.35,28119.52,12897.54,8538.72
1389886.5583,3751.71,13231.52,34291.37,33614.5,24531.18,28148.51,13021.85,8513.36
1389886.5603,4046.49,13316.2,34281.07,33602.53,24516.78,28173.5,13143.73,8491.33
1389886.5623,3996.28,13379.34,34273.63,33607.15,24507.95,28173.83,13203.1,8477.31
1389886.5643,3453.35,13362.93,34269.91,33618.64,24515.11,28135.35,13136.58,8486.08
1389886.5663,2791.88,13266.9,34272.15,33631.52,24544.19,28090.72,12986.33,8509.68
1389886.5683,2406.36,13154.65,34278.02,33636.0,24565.99,28064.59,12842.32,8539.39
1389886.5703,2565.53,13120.7,34294.08,33641.25,24577.76,28077.18,12799.07,8567.62
1389886.5723,3019.91,13144.4,34311.68,33641.87,24581.86,28122.24,12863.4,8582.55
1389886.5743,3615.33,13222.51,34315.3,33632.28,24566.13,28154.14,12989.09,8568.91
1389886.5763,4009.77,13310.62,34304.77,33619.69,24545.15,28169.25,13116.6,8546.21
1389886.5783,4081.63,13374.28,34281.02,33606.1,24519.35,28169.97,13194.04,8524.13
1389886.5803,3666.59,13376.14,34264.85,33601.34,24512.58,28142.5,13165.52,8516.22
1389886.5823,2986.86,13303.09,34271.05,33616.55,24534.42,28112.27,13042.64,8533.67
1389886.5843,2460.77,13183.55,34288.32,33632.28,24558.17,28083.52,12887.77,8557.08
1389886.5863,2467.92,13132.29,34316.83,33652.21,24578.96,28080.66,12810.14,8576.82
1389886.5883,2848.63,13136.91,34331.56,33652.69,24580.29,28106.55,12839.22,8584.26
1389886.5903,3415.06,13200.24,34329.99,33650.21,24568.47,28142.93,12950.14,8576.78
1389886.5923,3906.82,13285.07,34307.2,33632.71,24543.48,28172.73,13080.03,8549.36
1389886.5943,4105.76,13355.73,34277.82,33610.2,24517.49,28184.56,13176.63,8516.41
1389886.5963,3853.8,13388.49,34258.13,33597.85,24508.86,28170.3,13190.94,8500.39
1389886.5983,3220.75,13343.86,34259.56,33600.29,24525.22,28136.97,13100.05,8509.3
1389886.6003,2585.03,13221.65,34263.42,33599.67,24543.0,28089.19,12933.07,8524.66
1389886.6023,2406.22,13133.1,34279.35,33622.55,24561.69,28074.17,12812.76,8546.31
1389886.6043,2679.25,13118.22,34300.52,33651.02,24568.27,28097.54,12812.81,8553.55
1389886.6063,3223.09,13175.63,34326.03,33667.28,24573.52,28136.54,12916.28,8563.95
1389886.6083,3776.65,13259.46,34315.35,33647.68,24553.4,28167.25,13044.12,8545.07
1389886.6103,4092.17,13340.95,34293.32,33614.83,24528.94,28187.8,13167.81,8513.12
1389886.6123,3999.28,13385.39,34272.15,33592.18,24512.91,28178.55,13213.83,8496.95
1389886.6143,3473.9,13369.47,34271.05,33600.0,24520.78,28151.52,13149.98,8511.12
1389886.6163,2768.71,13259.17,34266.0,33607.92,24534.75,28111.22,12996.53,8529.57
1389886.6183,2408.22,13156.56,34282.88,33636.86,24560.65,28099.59,12860.92,8559.51
1389886.6203,2551.99,13124.18,34304.05,33659.13,24581.82,28097.82,12824.06,8581.4
1389886.6223,3023.58,13144.54,34310.54,33654.74,24586.01,28120.33,12883.81,8579.45
1389886.6243,3596.83,13222.17,34314.11,33640.2,24573.19,28169.3,13004.45,8562.8
1389886.6263,4032.66,13318.4,34306.82,33626.8,24543.67,28200.63,13141.78,8536.82
1389886.6283,4089.74,13382.15,34288.93,33609.11,24522.64,28205.78,13218.88,8512.88
1389886.6303,3692.06,13385.58,34265.71,33597.14,24518.68,28176.6,13188.79,8507.06
1389886.6323,2974.37,13296.03,34255.41,33592.09,24531.03,28125.96,13048.56,8524.66
1389886.6343,2456.28,13171.01,34264.38,33599.76,24551.25,28080.37,12886.91,8547.83
1389886.6363,2437.45,13109.83,34282.69,33618.36,24569.18,28068.12,12799.69,8563.9
1389886.6383,2821.3,13109.3,34297.37,33629.99,24573.66,28090.05,12820.39,8562.71
1389886.6403,3384.26,13171.29,34300.28,33628.94,24553.25,28133.92,12930.59,8536.48
1389886.6423,3904.2,13270.67,34299.09,33621.6,24525.79,28177.84,13078.98,8514.21
1389886.6443,4095.13,13346.53,34276.39,33599.95,24498.13,28188.18,13183.98,8488.04
1389886.6463,3847.07,13373.33,34254.98,33593.85,24481.59,28163.48,13191.75,8473.21
1389886.6483,3209.97,13330.89,34252.84,33601.53,24504.24,28126.77,13092.19,8501.72
1389886.6503,2583.93,13215.07,34262.33,33606.68,24544.0,28088.76,12932.02,8540.11
1389886.6523,2397.44,13139.11,34287.17,33634.71,24581.67,28083.04,12826.21,8574.73
1389886.6543,2683.54,13129.67,34311.54,33652.69,24603.8,28117.09,12831.4,8595.18
1389886.6563,3214.07,13168.0,34307.63,33644.73,24591.97,28156.0,12915.14,8581.07
1389886.6583,3756.67,13243.1,34291.94,33627.99,24560.41,28182.18,13036.01,8550.55
1389886.6603,4080.68,13329.79,34272.82,33601.57,24528.41,28195.34,13154.41,8517.41
1389886.6623,3988.46,13368.32,34252.03,33584.88,24510.86,28186.8,13205.48,8489.94
1389886.6643,3461.12,13351.25,34241.16,33579.5,24509.81,28154.14,13145.16,8494.38
1389886.6663,2744.48,13243.92,34247.31,33588.94,24528.84,28117.95,12988.04,8522.94
1389886.6683,2388.38,13137.63,34260.32,33602.15,24547.44,28097.16,12843.66,8540.35
1389886.6703,2521.18,13097.43,34283.21,33625.61,24567.37,28106.84,12800.03,8560.94
1389886.6723,3012.8,13135.39,34301.67,33635.24,24577.33,28138.93,12864.02,8567.95
1389886.6743,3569.03,13206.2,34296.85,33625.85,24561.46,28166.87,12983.75,8553.32
1389886.6763,4013.68,13303.19,34278.35,33604.15,24530.65,28178.74,13122.37,8524.28
1389886.6783,4065.56,13373.28,34266.33,33598.14,24510.39,28186.42,13213.21,8510.64
1389886.6803,3703.64,13395.02,34259.75,33597.95,24502.23,28167.11,13192.89,8508.21
1389886.6823,2989.05,13311.29,34266.38,33597.14,24515.11,28129.82,13059.76,8523.51
1389886.6843,2502.82,13208.82,34293.94,33622.36,24555.16,28101.69,12913.99,8556.56
1389886.6863,2449.42,13134.77,34312.4,33639.1,24583.63,28097.06,12830.35,8577.87
1389886.6883,2841.23,13115.22,34308.15,33627.08,24577.57,28113.08,12844.61,8568.67
1389886.6903,3375.44,13162.04,34302.95,33617.79,24571.09,28150.28,12940.41,8558.04
1389886.6923,3916.41,13264.8,34294.94,33613.11,24557.45,28186.94,13079.36,8541.2
1389886.6943,4085.68,13339.76,34280.11,33596.81,24537.04,28211.79,13187.93,8520.99
1389886.6963,3879.21,13374.57,34265.05,33588.08,24517.25,28191.95,13202.76,8502.2
1389886.6983,3206.3,13315.11,34255.94,33583.22,24522.64,28122.0,13087.89,8505.49
1389886.7003,2578.31,13195.18,34252.65,33587.89,24543.24,28051.62,12916.38,8524.99
1389886.7023,2360.15,13106.16,34272.2,33605.53,24569.56,28052.43,12804.41,8550.64
1389886.7043,2677.3,13100.82,34300.62,33625.65,24585.73,28087.91,12807.08,8564.81
1389886.7063,3179.74,13146.93,34314.06,33629.56,24587.92,28132.92,12896.97,8554.89
1389886.7083,3765.96,13245.39,34320.17,33634.71,24578.86,28178.65,13038.97,8535.58
1389886.7103,4068.09,13324.74,34304.0,33618.55,24556.31,28192.48,13156.99,8518.36
1389886.7123,3998.9,13361.36,34275.15,33593.71,24530.56,28167.3,13194.47,8501.67
1389886.7143,3438.43,13333.08,34253.41,33574.39,24526.22,28117.56,13121.56,8499.72
1389886.7163,2761.46,13235.76,34260.52,33582.26,24553.92,28078.8,12974.88,8526.42
1389886.7183,2389.48,13134.05,34280.83,33605.48,24579.43,28060.73,12833.31,8552.46
1389886.7203,2541.69,13097.57,34301.81,33624.94,24593.21,28080.99,12795.12,8567.38
1389886.7223,2992.53,13117.27,34308.91,33624.13,24587.16,28113.56,12847.71,8562.66
1389886.7243,3570.22,13191.18,34309.34,33619.84,24568.94,28153.85,12966.59,8548.79
1389886.7263,4002.62,13291.17,34293.7,33602.05,24541.05,28180.94,13104.96,8521.37
1389886.7283,4066.71,13355.16,34285.22,33589.75,24523.5,28178.98,13193.94,8503.39
1389886.7303,3681.66,13364.89,34273.01,33575.87,24517.54,28149.04,13178.16,8498.05
1389886.7323,2976.61,13278.3,34267.33,33571.91,24528.94,28103.55,13037.02,8510.26
1389886.7343,2463.67,13173.96,34276.54,33587.13,24557.45,28074.7,12884.67,8535.53
1389886.7363,2439.31,13113.79,34297.66,33612.06,24586.35,28089.29,12813.47,8563.66
1389886.7383,2843.14,13118.08,34306.58,33614.83,24588.06,28127.77,12851.86,8565.24
1389886.7403,3391.08,13168.67,34312.44,33614.59,24575.62,28154.0,12944.84,8557.8
1389886.7423,3911.16,13274.05,34307.44,33611.78,24555.35,28183.51,13084.08,8543.35
1389886.7443,4092.6,13346.15,34285.45,33600.57,24530.84,28195.48,13193.04,8520.41
1389886.7463,3882.79,13381.15,34265.81,33589.41,24513.25,28165.68,13202.29,8499.81
1389886.7483,3218.75,13325.36,34259.28,33585.22,24522.31,28122.86,13093.95,8505.01
1389886.7503,2608.92,13218.5,34271.53,33600.0,24553.68,28091.86,12939.84,8527.71
1389886.7523,2396.3,13132.72,34294.32,33613.54,24580.39,28084.85,12824.82,8547.5
1389886.7543,2701.95,13123.18,34308.82,33621.84,24584.49,28101.73,12822.68,8560.37
1389886.7563,3191.33,13149.02,34310.49,33616.21,24570.04,28129.49,12896.63,8556.27
1389886.7583,3763.2,13234.71,34300.71,33600.48,24545.62,28161.82,13031.67,8535.0
1389886.7603,4065.9,13316.3,34288.98,33584.03,24524.74,28185.56,13155.51,8512.31
1389886.7623,4001.52,13362.98,34264.62,33564.76,24499.37,28167.39,13197.33,8486.41
1389886.7643,3443.77,13336.09,34249.5,33562.71,24502.09,28124.29,13120.37,8489.75
1389886.7663,2769.8,13243.77,34256.7,33580.12,24528.7,28081.09,12969.88,8510.16
1389886.7683,2384.33,13137.53,34272.63,33600.14,24557.31,28063.16,12827.87,8521.99
1389886.7703,2555.13,13117.84,34303.86,33627.9,24580.67,28093.06,12803.03,8526.52
1389886.7723,3008.51,13141.97,34317.88,33637.58,24584.34,28131.39,12866.55,8535.2
1389886.7743,3598.88,13215.02,34313.16,33628.09,24562.41,28162.67,12986.95,8529.95
1389886.7763,4002.62,13304.62,34298.47,33612.16,24540.47,28193.05,13121.32,8527.42
1389886.7783,4090.02,13372.9,34277.59,33586.17,24520.5,28201.63,13206.67,8516.98
1389886.7803,3702.12,13386.25,34270.0,33582.88,24522.07,28176.69,13185.22,8520.22
1389886.7823,3016.19,13307.67,34270.2,33589.03,24540.86,28128.29,13047.79,8538.06
1389886.7843,2470.92,13186.27,34279.45,33600.29,24565.18,28091.58,12890.72,8558.47
1389886.7863,2465.82,13132.38,34302.43,33630.61,24589.45,28097.2,12818.62,8578.59
1389886.7883,2830.17,13122.51,34298.85,33620.36,24577.48,28117.95,12837.46,8560.23
1389886.7903,3380.73,13164.57,34290.13,33599.81,24549.82,28150.99,12927.25,8529.04
1389886.7923,3876.92,13254.21,34279.54,33583.07,24527.6,28184.23,13062.1,8510.16
1389886.7943,4108.43,13346.48,34274.06,33579.31,24514.87,28211.41,13184.45,8500.43
1389886.7963,3874.45,13382.01,34260.61,33569.91,24502.66,28184.94,13207.82,8491.33
1389886.7983,3231.24,13320.78,34247.59,33566.72,24502.14,28124.62,13094.43,8492.04
1389886.8003,2586.46,13201.14,34252.08,33570.1,24520.45,28084.28,12932.59,8508.87
1389886.8023,2392.44,13118.79,34275.49,33594.8,24552.54,28067.4,12829.69,8535.67
1389886.8043,2650.45,13094.67,34292.37,33602.67,24564.46,28085.71,12821.1,8541.39
1389886.8063,3178.5,13137.34,34303.24,33608.44,24565.08,28137.35,12902.55,8541.2
1389886.8083,3740.36,13225.75,34298.23,33599.05,24544.15,28165.96,13035.68,8524.37
1389886.8103,4073.95,13315.35,34284.74,33587.03,24522.74,28193.52,13161.14,8500.96
1389886.8123,4002.33,13367.13,34265.81,33578.5,24513.06,28181.03,13211.11,8487.65
1389886.8143,3485.63,13352.49,34259.9,33586.46,24519.92,28146.13,13149.69,8496.43
1389886.8163,2778.48,13249.16,34260.71,33594.28,24535.33,28102.07,12998.15,8511.07
1389886.8183,2396.06,13137.29,34271.63,33608.68,24550.58,28075.84,12849.76,8523.42
1389886.8203,2531.81,13103.49,34285.88,33625.65,24563.36,28087.43,12808.52,8538.15
1389886.8223,3009.61,13132.81,34305.2,33633.67,24573.09,28132.49,12872.89,8554.17
1389886.8243,3574.32,13203.43,34299.28,33619.5,24558.4,28168.16,12991.86,8541.63
1389886.8263,3995.13,13281.73,34271.15,33584.79,24525.26,28178.98,13108.06,8505.35
1389886.8283,4067.37,13354.97,34261.18,33574.06,24516.82,28185.7,13195.61,8492.8
1389886.8303,3687.72,13367.56,34252.12,33570.63,24517.3,28158.33,13177.54,8497.14
1389886.8323,2982.62,13286.78,34248.4,33568.62,24530.89,28112.99,13047.27,8510.35
1389886.8343,2466.35,13179.21,34271.58,33589.8,24560.84,28088.53,12893.92,8542.11
1389886.8363,2449.18,13125.33,34298.38,33612.83,24582.91,28095.77,12815.57,8569.15
1389886.8383,2834.89,13130.48,34312.87,33627.18,24587.01,28133.2,12856.82,8581.26
1389886.8403,3390.69,13186.36,34311.63,33622.79,24569.23,28166.2,12957.91,8559.37
1389886.8423,3888.32,13264.8,34292.23,33604.63,24533.8,28183.89,13072.64,8507.11
1389886.8443,4087.16,13332.75,34264.23,33577.49,24506.38,28187.66,13172.34,8475.73
1389886.8463,3858.47,13361.84,34247.02,33568.86,24496.61,28168.2,13195.66,8473.92
1389886.8483,3229.9,13317.82,34243.59,33571.87,24509.58,28115.94,13084.94,8494.14
1389886.8503,2595.04,13210.25,34252.31,33582.45,24538.09,28074.7,12918.62,8527.18
1389886.8523,2398.73,13131.67,34272.63,33605.77,24565.8,28064.4,12812.28,8554.98
1389886.8543,2660.47,13103.87,34283.31,33611.78,24571.33,28087.0,12802.08,8544.97
1389886.8563,3189.09,13148.02,34290.08,33613.26,24564.89,28129.63,12893.49,8535.82
1389886.8583,3749.04,13234.38,34293.7,33601.1,24551.59,28161.96,13029.96,8533.43
1389886.8603,4084.4,13326.41,34282.74,33583.36,24530.56,28183.89,13151.22,8517.5
1389886.8623,4003.72,13379.77,34271.63,33572.39,24520.73,28188.18,13212.16,8508.59
1389886.8643,3492.74,13362.6,34258.42,33557.8,24515.44,28148.51,13150.12,8507.82
1389886.8663,2762.27,13239.77,34250.6,33554.46,24517.68,28084.66,12978.13,8509.54
1389886.8683,2397.92,13137.58,34265.0,33577.54,24539.76,28056.43,12832.26,8526.76
1389886.8703,2522.47,13097.1,34283.69,33601.05,24560.22,28074.08,12782.86,8542.16
1389886.8723,3007.13,13127.33,34295.37,33610.82,24569.8,28117.61,12851.57,8545.54
1389886.8743,3553.58,13193.56,34291.8,33607.15,24559.69,28153.18,12967.06,8531.33
1389886.8763,4008.96,13302.04,34288.36,33609.01,24544.86,28185.66,13116.84,8520.79
1389886.8783,4059.46,13361.12,34267.43,33590.13,24521.64,28187.23,13200.43,8498.81
1389886.8803,3700.16,13376.76,34250.64,33580.35,24511.05,28152.61,13184.5,8490.13
1389886.8823,2983.71,13290.17,34247.97,33573.58,24527.27,28092.82,13044.79,8502.44
1389886.8843,2491.76,13186.07,34267.24,33588.65,24556.45,28078.13,12898.21,8528.38
1389886.8863,2436.45,13123.42,34284.21,33610.87,24567.23,28087.43,12814.43,8546.69
1389886.8883,2841.19,13129.38,34297.57,33622.55,24567.7,28115.56,12834.93,8540.44
1389886.8903,3370.0,13179.83,34298.23,33614.88,24559.79,28146.99,12935.69,8516.6
1389886.8923,3909.02,13278.34,34292.85,33605.72,24537.85,28178.65,13080.07,8494.24
1389886.8943,4083.49,13349.01,34271.48,33584.98,24512.63,28185.47,13185.17,8480.17
1389886.8963,3901.05,13390.4,34263.42,33580.74,24509.58,28176.84,13212.16,8492.42
1389886.8983,3238.11,13335.28,34257.03,33576.3,24523.26,28133.54,13102.39,8510.07
1389886.9003,2620.08,13222.65,34261.33,33591.56,24543.24,28090.43,12938.88,8533.15
1389886.9023,2389.67,13136.53,34277.49,33615.5,24566.51,28076.99,12832.79,8559.85
1389886.9043,2683.35,13121.7,34293.46,33626.94,24578.48,28099.49,12833.84,8571.82
1389886.9063,3180.41,13158.28,34304.05,33621.7,24577.05,28133.06,12906.7,8569.67
1389886.9083,3760.0,13245.54,34303.1,33614.45,24564.65,28171.49,13041.5,8551.69
1389886.9103,4065.42,13328.12,34282.93,33591.8,24536.42,28191.14,13163.0,8521.75
1389886.9123,4018.59,13384.87,34273.72,33583.17,24524.6,28192.9,13225.51,8502.39
1389886.9143,3485.35,13367.61,34262.8,33577.73,24524.17,28163.48,13167.19,8486.13
1389886.9163,2795.98,13256.03,34258.42,33585.5,24537.76,28118.52,13005.93,8500.1
1389886.9183,2404.4,13141.2,34265.9,33591.18,24554.02,28084.47,12852.15,8527.47
1389886.9203,2535.25,13092.33,34276.25,33595.28,24562.65,28079.8,12798.26,8547.97
1389886.9223,2984.86,13114.6,34289.36,33600.29,24566.46,28108.27,12854.86,8553.22
1389886.9243,3557.83,13185.22,34291.18,33591.42,24551.54,28142.98,12972.79,8537.77
1389886.9263,3986.79,13280.73,34279.54,33580.69,24523.21,28173.4,13107.25,8512.55
1389886.9283,4059.32,13341.09,34258.23,33567.81,24500.9,28176.88,13190.84,8496.05
1389886.9303,3694.77,13364.98,34250.03,33560.95,24503.04,28152.76,13177.11,8494.9
1389886.9323,2997.35,13283.68,34248.64,33564.48,24521.83,28109.32,13036.92,8507.54
1389886.9343,2477.41,13167.81,34252.41,33572.58,24542.38,28073.65,12879.66,8523.94
1389886.9363,2431.49,13106.97,34277.4,33601.38,24572.09,28079.51,12804.8,8548.17
1389886.9383,2826.6,13117.51,34292.8,33614.02,24574.47,28113.18,12837.36,8552.46
1389886.9403,3367.0,13173.3,34299.04,33614.83,24562.55,28153.8,12947.04,8545.26
1389886.9423,3901.63,13276.05,34300.95,33616.02,24553.83,28191.76,13094.71,8532.91
1389886.9443,4094.74,13349.15,34292.61,33606.49,24537.33,28209.74,13201.38,8517.17
1389886.9463,3902.25,13391.88,34282.83,33606.96,24528.55,28192.71,13216.26,8513.4
1389886.9483,3255.99,13344.1,34279.3,33612.45,24541.76,28149.75,13113.07,8529.0
1389886.9503,2641.87,13230.37,34281.07,33607.34,24560.88,28107.12,12954.86,8545.3
1389886.9523,2398.06,13125.33,34290.56,33609.11,24580.43,28090.77,12831.5,8560.47
1389886.9543,2681.4,13107.78,34299.09,33611.68,24582.53,28105.21,12821.82,8564.38
1389886.9563,3165.44,13139.92,34299.66,33607.2,24569.8,28138.21,12903.02,8552.36
1389886.9583,3744.13,13231.33,34298.19,33601.96,24549.63,28166.49,13034.3,8528.85
1389886.9603,4043.48,13307.33,34281.69,33583.88,24523.74,28183.27,13152.03,8496.43
1389886.9623,4008.1,13361.88,34266.52,33567.58,24510.91,28188.28,13204.48,8485.94
1389886.9643,3467.94,13333.42,34252.31,33558.99,24514.63,28146.56,13130.19,8492.18
1389886.9663,2790.64,13234.09,34247.21,33563.47,24531.75,28089.0,12977.32,8508.73
1389886.9683,2389.48,13130.0,34257.7,33590.03,24558.83,28059.72,12838.27,8533.53
1389886.9703,2531.96,13092.9,34274.39,33611.3,24573.85,28068.83,12794.21,8544.83
1389886.9723,2967.17,13106.78,34288.7,33606.49,24573.0,28097.2,12850.72,8541.54
1389886.9743,3550.2,13183.55,34293.27,33593.47,24562.55,28139.79,12973.98,8533.91
1389886.9763,3966.67,13272.62,34279.11,33573.11,24541.38,28167.54,13105.2,8514.31
1389886.9783,4072.67,13349.39,34270.2,33569.24,24531.27,28183.89,13201.86,8505.73
1389886.9803,3701.21,13365.17,34261.61,33568.96,24532.18,28165.49,13187.84,8510.16
1389886.9823,3034.45,13296.89,34264.76,33577.59,24544.91,28128.67,13068.58,8528.14
1389886.9843,2502.01,13187.93,34281.78,33594.9,24575.28,28106.36,12915.33,8558.51
1389886.9863,2470.88,13121.08,34292.27,33610.92,24590.92,28100.16,12825.16,8568.43
1389886.9883,2820.97,13112.74,34297.42,33611.35,24588.64,28125.67,12841.61,8564.38
1389886.9903,3363.99,13163.62,34299.57,33604.96,24572.85,28156.47,12936.93,8549.64
1389886.9923,3859.9,13249.21,34291.7,33588.99,24549.39,28188.42,13074.45,8526.23
1389886.9943,4074.53,13321.5,34272.91,33570.39,24525.6,28202.11,13184.6,8504.01
1389886.9963,3861.38,13356.35,34258.75,33566.86,24516.49,28181.27,13202.14,8492.52
1389886.9983,3259.13,13317.25,34256.7,33574.63,24529.89,28135.88,13102.44,8492.23
1389887.0003,2632.28,13213.49,34266.19,33586.03,24554.35,28101.16,12955.24,8515.65
1389887.0023,2429.77,13132.05,34280.83,33603.39,24572.23,28088.95,12837.6,8542.01
1389887.0043,2676.58,13112.12,34292.56,33606.06,24575.43,28101.16,12814.0,8552.17
1389887.0063,3182.41,13156.84,34306.96,33616.45,24574.43,28143.36,12909.13,8555.03
1389887.0083,3728.1,13242.2,34308.77,33617.6,24558.79,28189.57,13041.31,8546.02
1389887.0103,4059.55,13325.79,34301.81,33612.21,24541.81,28219.13,13167.53,8530.43
1389887.0123,4007.24,13370.8,34281.88,33587.89,24522.31,28214.98,13226.08,8510.11
1389887.0143,3507.47,13347.2,34262.09,33567.38,24521.64,28166.01,13159.66,8503.06
1389887.0163,2802.71,13235.95,34248.79,33557.94,24536.76,28101.97,12989.24,8513.64
1389887.0183,2422.24,13131.76,34259.13,33573.11,24560.65,28072.27,12846.61,8533.57
1389887.0203,2534.77,13096.14,34277.49,33588.56,24574.0,28078.08,12802.65,8544.97
1389887.0223,2968.26,13111.02,34290.56,33591.04,24574.57,28109.32,12854.82,8544.73
1389887.0243,3522.02,13180.21,34295.37,33585.36,24564.32,28153.23,12975.46,8530.86
1389887.0263,3948.64,13265.66,34288.89,33574.78,24545.15,28180.03,13104.77,8510.88
1389887.0283,4026.89,13324.31,34272.58,33557.75,24522.83,28183.46,13185.93,8492.85
1389887.0303,3679.99,13327.74,34252.03,33544.64,24506.86,28144.98,13154.89,8478.21
1389887.0323,3011.18,13260.41,34250.12,33548.88,24521.54,28096.3,13023.43,8489.04
1389887.0343,2487.56,13150.12,34258.51,33562.14,24547.29,28062.82,12869.6,8510.16
1389887.0363,2449.51,13094.9,34276.78,33577.26,24569.51,28066.3,12795.59,8528.38
1389887.0383,2805.09,13090.37,34292.7,33577.49,24576.95,28098.16,12818.05,8529.57
1389887.0403,3340.67,13145.11,34301.24,33574.97,24565.27,28140.02,12925.1,8521.03
1389887.0423,3838.16,13226.89,34290.84,33560.66,24544.86,28173.88,13057.9,8502.01
1389887.0443,4042.77,13297.99,34266.91,33538.54,24516.2,28182.08,13161.95,8477.55
1389887.0463,3849.03,13338.14,34250.45,33536.82,24499.61,28168.11,13186.74,8464.96
1389887.0483,3245.4,13302.04,34243.68,33542.92,24505.05,28128.67,13095.81,8473.68
1389887.0503,2605.06,13179.97,34241.82,33548.17,24525.31,28084.95,12927.49,8488.37
1389887.0523,2400.06,13098.86,34260.09,33567.05,24550.15,28083.85,12819.01,8506.35
1389887.0543,2649.31,13083.55,34285.88,33581.83,24567.75,28118.23,12813.81,8524.09
1389887.0563,3151.37,13113.98,34287.08,33570.68,24554.68,28149.18,12881.04,8515.5
1389887.0583,3691.15,13189.7,34282.12,33556.7,24535.47,28168.25,13009.6,8495.52
1389887.0603,4028.61,13273.0,34267.95,33538.01,24514.58,28161.05,13133.43,8469.11
1389887.0623,3965.09,13318.68,34255.7,33529.57,24503.66,28159.76,13182.36,8460.24
1389887.0643,3485.54,13313.91,34245.02,33528.9,24504.62,28124.62,13129.86,8460.33
1389887.0663,2785.64,13219.41,34245.88,33542.11,24529.22,28082.42,12990.95,8479.74
1389887.0683,2411.7,13124.04,34262.66,33567.58,24553.25,28056.34,12859.16,8504.58
1389887.0703,2501.54,13072.49,34277.01,33572.87,24566.84,28060.58,12794.31,8515.74
1389887.0723,2955.1,13085.65,34284.74,33568.15,24564.17,28083.61,12830.35,8513.74
1389887.0743,3492.64,13140.11,34283.88,33559.56,24545.43,28112.8,12931.63,8496.38
1389887.0763,3943.3,13236.33,34272.58,33542.45,24513.2,28149.99,13074.35,8469.63
1389887.0783,4014.68,13303.23,34259.75,33528.76,24498.99,28162.44,13168.57,8457.57
1389887.0803,3690.2,13324.21,34245.54,33526.95,24491.03,28133.49,13148.4,8453.89
1389887.0823,2986.38,13250.5,34237.58,33530.29,24504.19,28090.77,13024.24,8468.06
1389887.0843,2479.7,13142.21,34249.88,33547.31,24529.75,28059.06,12873.46,8489.71
1389887.0863,2411.7,13077.79,34267.33,33567.15,24550.44,28056.24,12787.73,8509.83
1389887.0883,2801.04,13086.85,34285.5,33578.11,24560.31,28085.95,12816.1,8516.5
1389887.0903,3319.12,13135.58,34292.23,33578.69,24557.02,28128.82,12913.75,8510.92
1389887.0923,3857.04,13232.14,34288.93,33576.87,24540.38,28167.92,13049.6,8497.91
1389887.0943,4050.88,13301.66,34268.19,33554.03,24517.01,28174.93,13154.22,8474.4
1389887.0963,3870.68,13335.99,34251.5,33543.16,24499.18,28140.6,13171.87,8455.9
1389887.0983,3231.1,13285.92,34242.97,33541.92,24504.38,28093.01,13065.01,8459.52
1389887.1003,2624.61,13177.49,34249.5,33558.75,24525.6,28053.95,12906.93,8476.4
1389887.1023,2389.24,13107.4,34283.12,33600.53,24568.56,28054.62,12807.7,8516.03
1389887.1043,2677.01,13106.16,34317.97,33629.76,24599.13,28094.68,12817.38,8551.5
1389887.1063,3165.96,13139.44,34326.51,33624.7,24596.65,28130.39,12893.06,8558.66
1389887.1083,3729.82,13218.17,34319.69,33605.96,24568.47,28162.24,13013.56,8537.63
1389887.1103,4036.86,13291.17,34297.71,33572.73,24539.95,28177.41,13129.19,8510.5
1389887.1123,3995.9,13329.84,34270.72,33546.83,24518.3,28166.2,13183.26,8485.6
1389887.1143,3488.54,13322.31,34258.13,33542.21,24516.97,28129.01,13127.71,8483.46
1389887.1163,2803.14,13224.7,34260.8,33547.31,24533.56,28085.9,12979.89,8494.33
1389887.1183,2407.36,13126.8,34274.82,33564.62,24561.31,28066.02,12846.14,8518.51
1389887.1203,2517.08,13086.27,34291.75,33585.12,24577.33,28075.6,12795.26,8528.85
1389887.1223,2954.44,13104.2,34296.37,33588.32,24572.85,28110.6,12847.62,8512.69
1389887.1243,3509.66,13167.96,34295.99,33584.07,24557.45,28143.46,12961.72,8497.14
1389887.1263,3943.44,13256.03,34277.63,33571.72,24528.08,28161.2,13094.0,8474.68
1389887.1283,4034.85,13319.73,34258.32,33567.48,24508.91,28170.78,13183.64,8462.81
1389887.1304,3691.39,13346.63,34249.83,33562.9,24507.81,28150.56,13171.58,8467.87
1389887.1324,3004.84,13272.29,34250.31,33559.71,24526.03,28111.79,13041.55,8488.23
1389887.1344,2485.8,13165.28,34259.56,33561.19,24545.48,28076.6,12885.43,8507.68
1389887.1364,2413.89,13094.24,34272.48,33567.15,24560.55,28062.78,12787.63,8514.79
1389887.1384,2782.2,13092.23,34279.88,33565.72,24560.12,28082.18,12806.32,8513.88
1389887.1404,3302.72,13130.48,34275.82,33553.22,24544.15,28112.61,12894.73,8504.06
1389887.1424,3838.3,13223.22,34270.96,33545.69,24525.07,28150.04,13035.49,8488.08
1389887.1444,4032.18,13286.12,34251.03,33522.13,24498.18,28162.29,13142.06,8463.91
1389887.1464,3866.53,13327.89,34240.06,33516.46,24490.6,28142.07,13170.58,8454.94
1389887.1484,3238.54,13289.07,34241.59,33528.9,24510.82,28106.03,13075.02,8469.87
1389887.1504,2623.94,13197.23,34258.51,33553.56,24543.72,28078.75,12931.49,8499.91
1389887.1524,2372.74,13112.74,34279.3,33580.12,24568.85,28071.55,12812.71,8525.32
1389887.1544,2649.02,13093.95,34287.89,33588.94,24566.37,28093.06,12806.61,8525.66
1389887.1564,3131.39,13119.94,34292.85,33585.65,24558.74,28124.81,12872.41,8514.31
1389887.1584,3695.92,13194.94,34281.35,33572.15,24532.46,28152.23,12994.91,8483.36
1389887.1604,4003.24,13265.99,34262.61,33547.79,24505.09,28176.12,13110.69,8460.33
1389887.1624,3993.51,13326.27,34259.75,33543.07,24496.42,28185.28,13175.63,8456.52
1389887.1644,3481.48,13323.79,34256.84,33552.6,24508.62,28160.72,13129.95,8472.16
1389887.1664,2817.54,13248.68,34266.29,33569.96,24536.8,28101.4,12986.09,8504.01
1389887.1684,2405.64,13142.02,34278.35,33574.54,24559.26,28066.54,12841.08,8517.31
1389887.1704,2534.72,13106.68,34298.28,33593.61,24576.24,28069.93,12800.93,8532.76
1389887.1724,2949.67,13113.88,34305.96,33592.99,24575.43,28089.43,12852.1,8531.24
1389887.1744,3525.5,13171.44,34294.42,33573.54,24551.54,28121.86,12954.09,8509.97
1389887.1764,3940.39,13250.4,34275.54,33553.51,24519.83,28146.89,13072.87,8483.55
1389887.1784,4046.58,13314.3,34260.8,33541.83,24501.04,28157.05,13164.81,8462.14
1389887.1804,3678.94,13319.35,34237.72,33526.14,24486.45,28127.44,13146.83,8450.89
1389887.1824,3009.99,13242.77,34225.09,33517.94,24491.6,28073.27,13008.88,8455.33
1389887.1844,2470.11,13141.49,34247.07,33540.21,24529.6,28048.18,12867.45,8490.28
1389887.1864,2432.97,13093.66,34275.49,33573.68,24560.36,28053.91,12801.6,8518.51
1389887.1884,2784.92,13091.09,34284.02,33583.88,24560.98,28089.81,12827.68,8518.6
1389887.1904,3339.72,13144.69,34286.12,33586.08,24548.06,28126.67,12926.53,8505.58
1389887.1924,3830.24,13228.89,34275.44,33572.15,24524.74,28159.29,13054.04,8482.08
1389887.1944,4064.23,13307.24,34264.47,33555.75,24506.38,28183.61,13159.85,8468.77
1389887.1964,3875.88,13347.06,34250.79,33546.74,24494.41,28172.26,13188.89,8461.19
1389887.1984,3270.67,13311.58,34245.02,33549.12,24502.04,28128.01,13100.34,8468.1
1389887.2004,2616.88,13201.91,34251.69,33558.04,24526.17,28081.8,12936.12,8489.99
1389887.2024,2392.91,13118.94,34273.87,33586.41,24552.97,28061.3,12813.9,8516.93
1389887.2044,2639.68,13097.86,34289.65,33596.57,24560.41,28075.75,12797.6,8524.7
1389887.2064,3147.32,13136.87,34300.81,33598.24,24556.97,28117.23,12881.71,8521.84
1389887.2084,3698.54,13213.83,34297.14,33581.17,24539.52,28147.84,13006.97,8500.53
1389887.2104,4032.66,13286.93,34272.34,33549.6,24506.0,28164.68,13115.93,8467.2
1389887.2124,3982.12,13339.66,34250.64,33538.25,24492.84,28165.2,13176.87,8454.66
1389887.2144,3490.64,13335.04,34246.02,33546.17,24500.28,28139.26,13135.63,8465.43
1389887.2164,2804.09,13246.59,34252.55,33554.03,24520.97,28099.44,12998.63,8481.79
1389887.2184,2411.03,13146.59,34263.85,33566.29,24543.29,28069.74,12856.15,8498.1
1389887.2204,2511.31,13106.78,34281.35,33582.74,24555.78,28074.41,12800.6,8509.35
1389887.2224,2951.77,13112.45,34290.46,33587.27,24553.4,28104.83,12839.27,8509.92
1389887.2244,3522.83,13182.83,34290.7,33591.32,24541.52,28152.04,12959.15,8496.95
1389887.2264,3966.71,13271.29,34279.4,33577.54,24519.02,28178.65,13097.14,8471.16
1389887.2284,4053.97,13328.51,34260.94,33553.03,24492.89,28168.49,13185.07,8442.78
1389887.2304,3711.84,13345.67,34249.21,33544.02,24488.21,28138.83,13166.86,8438.35
1389887.2324,3032.97,13279.34,34241.35,33541.11,24499.66,28096.77,13037.49,8459.24
1389887.2344,2485.18,13171.87,34255.03,33558.9,24528.74,28065.49,12884.62,8497.29
1389887.2364,2428.91,13114.41,34275.77,33583.31,24554.21,28066.88,12803.79,8522.08
1389887.2384,2795.89,13119.37,34296.18,33598.52,24569.09,28104.79,12831.4,8531.67
1389887.2404,3351.02,13181.45,34305.29,33600.05,24565.37,28148.7,12932.11,8527.9
1389887.2424,3859.81,13261.99,34293.08,33578.07,24540.05,28181.37,13061.67,8501.91
1389887.2444,4079.96,13328.98,34264.09,33545.36,24507.0,28190.43,13165.48,8469.06
1389887.2464,3887.22,13362.03,34249.17,33540.63,24497.18,28172.4,13186.65,8458.76
1389887.2484,3275.2,13324.36,34242.4,33544.45,24501.61,28129.44,13104.96,8458.66
1389887.2504,2616.26,13210.58,34244.83,33555.65,24524.98,28077.8,12938.12,8477.88
1389887.2524,2390.34,13131.19,34261.23,33579.88,24550.63,28064.68,12815.72,8504.34
1389887.2544,2636.86,13115.88,34290.75,33603.15,24570.99,28098.78,12797.64,8529.47
1389887.2564,3141.45,13146.83,34295.56,33601.19,24559.36,28138.07,12878.8,8517.84
1389887.2584,3680.04,13209.82,34282.83,33586.74,24531.75,28161.34,13000.06,8488.7
1389887.2604,4034.81,13298.99,34266.33,33565.48,24505.57,28170.02,13122.27,8470.2
1389887.2624,3976.97,13339.09,34246.97,33541.16,24484.49,28163.96,13176.68,8455.37
1389887.2644,3492.64,13327.5,34238.01,33532.53,24482.92,28127.05,13119.65,8455.42
1389887.2664,2779.67,13232.09,34234.72,33535.29,24500.09,28084.23,12968.54,8470.44
1389887.2684,2399.54,13137.77,34243.59,33553.56,24523.4,28056.58,12837.79,8491.66
1389887.2704,2487.09,13099.48,34273.1,33578.35,24551.68,28068.12,12795.35,8516.65
1389887.2724,2959.54,13122.75,34290.08,33591.47,24565.56,28115.47,12855.29,8522.8
1389887.2744,3505.33,13182.07,34290.46,33584.65,24552.97,28137.69,12965.25,8507.35
1389887.2764,3973.77,13277.44,34280.59,33572.73,24529.51,28167.44,13102.58,8489.9
1389887.2784,4031.09,13315.58,34245.73,33543.73,24492.22,28159.57,13165.28,8459.19
1389887.2804,3704.93,13329.84,34222.85,33529.86,24476.34,28127.05,13148.12,8443.55
1389887.2824,3015.23,13269.0,34227.52,33534.58,24500.04,28094.1,13035.2,8459.9
1389887.2844,2488.52,13162.76,34239.01,33542.02,24526.27,28064.45,12885.86,8483.89
1389887.2864,2399.49,13092.66,34256.27,33556.99,24546.67,28061.77,12804.56,8503.58
1389887.2884,2780.96,13089.09,34271.63,33562.85,24548.2,28088.24,12818.77,8508.4
1389887.2904,3293.51,13130.24,34271.44,33553.8,24533.89,28119.95,12900.4,8494.19
1389887.2924,3841.83,13229.32,34275.01,33551.84,24521.69,28163.01,13042.12,8482.84
1389887.2944,4052.78,13302.57,34263.52,33536.49,24510.53,28184.56,13153.13,8468.92
1389887.2964,3893.42,13339.47,34245.35,33529.81,24499.75,28164.2,13177.11,8455.47
1389887.2984,3252.17,13299.42,34237.96,33533.58,24508.81,28117.42,13085.51,8464.29
1389887.3004,2630.9,13195.18,34242.4,33545.93,24532.13,28079.04,12929.39,8484.32
1389887.3024,2374.51,13106.54,34256.08,33562.24,24553.78,28064.11,12815.57,8503.63
1389887.3044,2636.58,13093.14,34274.73,33577.11,24564.51,28086.95,12811.71,8519.36
1389887.3064,3115.56,13124.18,34290.22,33576.87,24561.93,28127.39,12883.52,8516.69
1389887.3084,3693.87,13204.48,34292.13,33575.68,24546.34,28166.01,13010.36,8501.24
1389887.3104,4027.56,13289.21,34278.44,33562.62,24521.69,28185.37,13132.72,8480.36
1389887.3124,3987.03,13330.6,34252.46,33544.83,24499.13,28171.73,13181.02,8456.42
1389887.3144,3489.07,13323.79,34242.44,33552.6,24499.85,28137.26,13130.24,8455.42
1389887.3164,2801.32,13232.52,34242.11,33565.24,24517.06,28084.0,12980.03,8466.44
1389887.3184,2395.53,13137.39,34257.08,33582.26,24540.95,28056.91,12843.28,8473.68
1389887.3204,2496.67,13096.43,34283.83,33607.44,24561.74,28069.26,12789.63,8487.89
1389887.3224,2952.05,13125.14,34310.49,33627.08,24574.33,28119.62,12858.34,8512.35
1389887.3244,3511.81,13182.36,34311.39,33620.98,24560.45,28155.19,12962.3,8509.4
1389887.3264,3955.84,13270.19,34301.24,33592.42,24537.23,28193.52,13105.44,8491.33
1389887.3284,4052.11,13329.98,34288.65,33562.38,24519.59,28204.59,13203.43,8480.07
1389887.3304,3715.56,13341.09,34268.57,33547.69,24505.9,28158.57,13170.29,8472.49
1389887.3324,3022.91,13266.28,34258.61,33546.12,24513.44,28103.07,13046.98,8482.5
1389887.3344,2493.86,13169.19,34266.76,33558.75,24539.52,28068.5,12901.88,8507.78
1389887.3364,2414.75,13106.06,34283.31,33576.59,24562.6,28079.42,12813.24,8529.81
1389887.3384,2787.07,13106.59,34288.6,33581.21,24566.37,28111.6,12833.74,8535.24
1389887.3404,3302.72,13147.21,34289.41,33584.98,24559.17,28139.79,12913.04,8519.6
1389887.3424,3831.77,13228.51,34283.31,33578.88,24536.9,28166.97,13031.77,8485.27
1389887.3444,4041.43,13297.32,34278.92,33563.52,24527.6,28183.42,13133.48,8477.83
1389887.3464,3883.22,13337.52,34271.15,33562.47,24523.26,28148.7,13148.5,8480.45
1389887.3484,3260.8,13302.95,34274.49,33579.16,24540.47,28120.81,13065.24,8510.78
1389887.3504,2652.36,13208.82,34283.07,33598.19,24555.35,28069.69,12921.81,8531.14
1389887.3524,2391.39,13122.75,34296.23,33620.65,24567.8,28050.19,12808.23,8546.31
1389887.3544,2648.35,13102.44,34305.34,33626.75,24580.43,28043.7,12795.12,8555.79
1389887.3564,3119.66,13128.57,34313.64,33617.21,24590.54,28078.61,12866.59,8554.27
1389887.3584,3699.26,13214.69,34307.34,33605.44,24582.82,28127.96,12997.68,8540.82
1389887.3604,4010.01,13284.59,34279.26,33573.11,24553.64,28145.79,13105.35,8510.45
1389887.3624,3999.19,13333.27,34262.85,33561.28,24534.9,28148.94,13167.81,8493.09
1389887.3644,3500.18,13322.55,34258.66,33574.3,24535.47,28116.42,13118.79,8485.51
1389887.3664,2836.37,13239.05,34265.57,33586.7,24555.69,28066.16,12979.99,8489.18
1389887.3684,2415.13,13142.78,34282.02,33601.53,24581.48,28046.66,12849.76,8518.98
1389887.3704,2534.44,13112.74,34305.48,33617.74,24594.79,28064.25,12808.28,8554.32
1389887.3724,2941.32,13119.79,34303.72,33606.63,24591.16,28094.91,12851.19,8568.24
1389887.3744,3517.53,13193.04,34307.63,33608.63,24598.89,28140.5,12970.02,8575.2
1389887.3764,3938.15,13271.86,34300.38,33599.09,24585.25,28167.44,13088.08,8552.12
1389887.3784,4056.36,13332.8,34285.22,33586.41,24559.26,28173.35,13170.53,8518.08
1389887.3804,3717.18,13352.97,34277.11,33583.6,24559.45,28151.56,13163.47,8518.03
1389887.3824,3055.76,13290.74,34276.54,33593.85,24586.82,28109.7,13045.31,8544.59
1389887.3844,2509.83,13187.6,34289.36,33617.45,24617.01,28085.33,12905.89,8569.67
1389887.3864,2461.67,13133.58,34310.44,33639.39,24631.79,28084.9,12828.4,8583.17
1389887.3884,2800.27,13132.62,34325.03,33647.06,24635.17,28108.22,12851.43,8585.88
1389887.3904,3334.57,13176.06,34326.94,33629.71,24621.44,28143.41,12943.22,8574.92
1389887.3924,3831.2,13249.68,34319.6,33605.72,24601.89,28170.49,13063.43,8557.7
1389887.3944,4063.94,13306.91,34297.8,33580.45,24579.96,28179.36,13153.08,8538.01
1389887.3964,3873.78,13332.46,34272.15,33564.48,24554.3,28159.57,13171.96,8513.5
1389887.3984,3278.07,13299.13,34258.47,33566.15,24549.92,28118.76,13086.85,8511.12
1389887.4004,2637.77,13208.39,34267.05,33582.69,24582.1,28087.33,12944.13,8539.58
1389887.4024,2405.55,13132.48,34281.78,33600.05,24607.57,28081.37,12841.66,8564.19
1389887.4044,2629.85,13112.93,34286.22,33600.76,24613.62,28097.82,12834.12,8568.62
1389887.4064,3117.99,13140.11,34297.61,33603.39,24613.57,28132.73,12901.5,8565.62
1389887.4084,3662.63,13209.49,34294.8,33593.61,24591.45,28160.96,13011.12,8544.92
1389887.4104,4007.72,13285.26,34278.68,33577.3,24561.46,28176.98,13116.03,8519.79
1389887.4124,3980.73,13337.57,34263.28,33568.29,24543.0,28174.69,13179.69,8504.92
1389887.4144,3509.24,13337.33,34256.84,33575.68,24548.49,28140.12,13138.63,8506.87
1389887.4164,2834.8,13260.08,34264.66,33591.18,24574.95,28100.4,13004.5,8527.42
1389887.4184,2431.39,13160.66,34278.59,33609.25,24600.46,28069.83,12862.49,8550.12
1389887.4204,2524.66,13126.52,34300.38,33623.79,24621.11,28084.85,12819.96,8567.24
1389887.4224,2962.26,13141.82,34315.16,33625.08,24623.92,28128.34,12875.99,8572.87
1389887.4244,3517.91,13202.91,34313.35,33617.83,24604.51,28165.96,12981.46,8556.89
1389887.4264,3959.89,13283.87,34309.34,33608.82,24583.29,28195.29,13100.39,8536.1
1389887.4284,4062.32,13335.99,34286.41,33583.55,24553.49,28195.34,13178.78,8509.45
1389887.4304,3738.83,13351.82,34276.3,33580.69,24550.63,28172.4,13172.72,8504.53
1389887.4324,3080.56,13292.5,34276.68,33589.41,24568.13,28127.63,13058.23,8519.84
1389887.4344,2531.0,13189.17,34287.41,33605.53,24593.5,28096.06,12908.98,8545.92
1389887.4364,2463.72,13133.77,34310.63,33629.71,24616.29,28095.53,12827.83,8569.91
1389887.4384,2801.42,13127.76,34327.27,33636.96,24625.5,28127.72,12851.43,8575.58
1389887.4404,3333.95,13175.39,34332.14,33629.37,24611.81,28168.11,12950.42,8564.19
1389887.4424,3826.76,13238.67,34314.54,33603.96,24578.67,28182.18,13057.85,8533.1
1389887.4444,4055.98,13301.76,34294.13,33582.26,24548.1,28186.61,13154.84,8504.82
1389887.4464,3880.41,13340.67,34282.26,33582.41,24537.8,28178.98,13195.47,8494.85
1389887.4484,3303.1,13323.31,34283.69,33601.1,24553.73,28153.76,13125.56,8509.83
1389887.4504,2668.29,13232.28,34294.56,33626.99,24587.25,28135.54,12984.66,8536.72
1389887.4524,2430.63,13155.56,34303.67,33636.72,24602.61,28131.92,12875.03,8553.79
1389887.4544,2640.82,13118.84,34307.91,33624.75,24600.22,28131.87,12849.14,8544.35
1389887.4564,3128.72,13140.82,34311.01,33613.3,24592.21,28133.4,12899.07,8534.0
1389887.4584,3659.06,13203.19,34307.67,33598.33,24574.38,28157.67,13006.97,8529.66
1389887.4604,4017.54,13280.68,34291.7,33581.07,24547.87,28178.55,13124.28,8513.74
1389887.4624,3982.74,13328.46,34274.01,33576.44,24536.95,28169.92,13181.26,8505.2
1389887.4644,3527.78,13331.94,34260.32,33571.91,24535.47,28123.76,13135.77,8506.73
1389887.4664,2830.27,13249.45,34263.28,33582.55,24559.93,28092.2,12999.82,8529.47
1389887.4684,2446.37,13160.42,34278.78,33604.15,24587.92,28076.22,12872.79,8558.04
1389887.4704,2520.47,13119.6,34297.95,33622.41,24609.14,28090.86,12821.82,8574.53
1389887.4724,2966.79,13136.72,34306.1,33628.18,24601.7,28127.53,12872.51,8565.9
1389887.4744,3497.51,13190.56,34307.58,33623.27,24586.87,28170.78,12980.13,8546.73
1389887.4764,3958.51,13272.62,34301.33,33613.02,24565.84,28193.29,13103.58,8526.04
1389887.4784,4044.39,13330.46,34286.65,33596.81,24550.25,28198.72,13185.17,8512.35
1389887.4804,3747.42,13354.59,34270.43,33584.12,24542.38,28173.4,13181.54,8506.82
1389887.4824,3058.58,13289.98,34260.42,33579.73,24547.68,28116.28,13067.01,8514.12
1389887.4844,2538.97,13194.28,34270.1,33591.42,24571.95,28089.43,12929.77,8533.96
1389887.4864,2445.36,13138.68,34298.09,33613.07,24598.03,28092.39,12849.24,8559.42
1389887.4884,2814.58,13142.49,34314.45,33625.89,24605.09,28117.14,12866.45,8565.86
1389887.4904,3315.78,13172.82,34312.35,33614.78,24592.35,28142.65,12937.21,8549.07
1389887.4924,3855.28,13257.51,34309.82,33606.91,24571.42,28175.74,13063.19,8530.76
1389887.4944,4072.62,13325.65,34294.75,33588.56,24550.97,28192.57,13167.57,8511.02
1389887.4964,3952.46,13375.62,34290.46,33590.37,24546.67,28187.71,13210.01,8506.73
1389887.4984,3335.91,13347.68,34285.22,33593.32,24555.83,28151.04,13126.23,8516.22
1389887.5004,2695.47,13249.07,34292.23,33603.96,24576.09,28109.12,12975.65,8537.29
1389887.5024,2419.04,13156.37,34306.29,33616.79,24594.83,28086.28,12851.57,8554.13
1389887.5044,2662.13,13128.9,34316.97,33620.93,24599.22,28099.06,12830.4,8558.47
1389887.5064,3133.01,13164.62,34324.41,33629.56,24599.36,28141.6,12916.14,8560.56
1389887.5084,3712.85,13251.5,34326.27,33630.61,24584.63,28191.43,13054.28,8549.6
1389887.5104,4065.94,13339.76,34310.39,33611.83,24556.16,28220.56,13172.2,8527.47
1389887.5124,4041.96,13385.11,34288.12,33593.52,24533.7,28217.94,13227.61,8505.15
1389887.5144,3538.04,13362.27,34264.38,33571.77,24529.41,28166.25,13166.62,8493.52
1389887.5164,2827.22,13254.98,34261.76,33571.63,24556.26,28099.83,13006.74,8511.59
1389887.5184,2407.79,13154.46,34278.44,33590.23,24587.87,28066.3,12863.11,8539.49
1389887.5204,2482.27,13106.06,34296.18,33605.77,24602.32,28076.75,12814.57,8557.56
1389887.5224,2932.79,13123.18,34309.49,33612.4,24601.13,28118.61,12862.35,8558.61
1389887.5244,3503.51,13189.75,34316.45,33610.01,24588.87,28162.29,12972.02,8544.49
1389887.5264,3972.91,13280.77,34301.95,33591.23,24560.98,28182.13,13098.62,8514.88
1389887.5284,4064.66,13330.18,34282.69,33570.63,24541.0,28186.13,13177.11,8493.62
1389887.5304,3751.66,13357.59,34276.68,33571.82,24540.05,28167.54,13177.01,8488.08
1389887.5324,3059.96,13294.6,34276.01,33582.41,24552.78,28126.62,13063.1,8501.67
1389887.5344,2507.5,13184.64,34272.39,33584.41,24560.12,28088.0,12908.03,8508.02
1389887.5364,2390.91,13105.2,34284.12,33594.42,24572.71,28084.0,12809.18,8521.37
1389887.5384,2751.54,13098.19,34287.98,33585.84,24568.75,28103.31,12817.53,8515.31
1389887.5404,3255.56,13122.56,34273.82,33560.28,24544.15,28116.66,12890.63,8489.75
1389887.5424,3796.53,13199.47,34252.84,33535.2,24504.71,28132.16,13012.32,8449.89
1389887.5444,4019.4,13271.91,34240.15,33523.04,24486.97,28152.76,13124.42,8432.82
1389887.5464,3874.92,13318.16,34228.14,33519.42,24479.3,28151.56,13164.81,8424.52
1389887.5484,3246.93,13277.82,34219.22,33516.03,24484.78,28110.27,13075.69,8432.58
1389887.5504,2616.26,13184.26,34224.85,33526.47,24502.95,28073.03,12931.01,8452.23
1389887.5524,2336.6,13095.09,34237.1,33542.92,24518.87,28063.4,12816.81,8470.82
1389887.5544,2586.98,13074.11,34251.88,33546.74,24525.93,28081.18,12800.03,8476.02
1389887.5564,3059.1,13089.61,34252.31,33535.44,24519.26,28102.93,12859.54,8468.25
1389887.5584,3646.56,13167.53,34246.35,33531.38,24498.47,28139.12,12984.09,8449.65
1389887.5604,3989.74,13248.78,34235.53,33516.6,24476.82,28161.0,13108.35,8428.24
1389887.5624,3992.13,13308.81,34229.19,33511.12,24469.38,28155.95,13174.73,8416.94
1389887.5644,3512.81,13315.15,34237.63,33522.9,24489.36,28132.35,13140.16,8432.1
1389887.5664,2829.65,13230.09,34243.25,33530.95,24513.53,28090.38,13003.64,8452.56
1389887.5684,2380.85,13117.6,34248.07,33539.92,24530.84,28060.15,12858.06,8472.3
1389887.5704,2475.17,13080.07,34271.67,33566.81,24550.49,28078.13,12810.04,8490.28
1389887.5724,2897.22,13092.61,34287.22,33574.06,24552.68,28122.38,12854.63,8493.33
1389887.5744,3484.54,13157.85,34287.98,33564.81,24533.7,28161.1,12958.0,8475.54
1389887.5764,3938.58,13246.78,34277.01,33550.84,24508.86,28196.1,13093.62,8453.7
1389887.5784,4074.53,13315.73,34262.57,33540.73,24491.74,28198.05,13185.69,8435.35
1389887.5804,3734.49,13340.38,34256.56,33540.68,24494.36,28179.55,13184.93,8433.96
1389887.5824,3068.02,13277.34,34257.89,33545.78,24508.72,28139.36,13067.58,8446.65
1389887.5844,2490.04,13162.81,34265.24,33558.09,24531.32,28097.92,12910.75,8470.35
1389887.5864,2405.36,13093.0,34275.44,33572.96,24542.86,28087.0,12817.05,8488.32
1389887.5884,2733.14,13082.17,34282.26,33569.29,24537.28,28107.36,12829.69,8491.04
1389887.5904,3289.03,13129.52,34291.41,33570.48,24530.08,28140.98,12920.33,8483.22
1389887.5924,3814.13,13215.92,34288.79,33559.66,24516.54,28179.27,13048.46,8463.77
1389887.5944,4076.62,13296.56,34274.96,33540.35,24500.9,28190.57,13160.42,8440.16
1389887.5964,3902.96,13339.0,34259.85,33534.44,24493.7,28175.17,13196.04,8428.91
1389887.5984,3300.19,13305.14,34250.74,33537.3,24497.32,28134.92,13108.3,8434.11
1389887.6004,2638.1,13201.81,34251.98,33546.26,24516.16,28095.87,12949.71,8446.03
1389887.6024,2375.27,13109.26,34264.0,33565.57,24538.0,28062.68,12817.15,8470.3
1389887.6044,2587.89,13077.26,34272.05,33573.01,24545.58,28070.88,12794.16,8486.65
1389887.6064,3071.21,13096.38,34272.39,33568.67,24531.99,28096.92,12852.43,8479.41
1389887.6084,3648.85,13182.5,34278.35,33567.15,24515.25,28139.4,12983.37,8467.29
1389887.6104,4013.25,13267.85,34268.19,33555.23,24493.36,28164.87,13109.4,8447.51
1389887.6124,3992.7,13318.64,34246.35,33533.58,24474.72,28151.66,13162.33,8429.77
1389887.6144,3501.75,13310.39,34228.95,33518.03,24473.1,28107.84,13112.45,8427.05
1389887.6164,2797.03,13221.46,34225.28,33516.22,24493.36,28061.68,12976.31,8446.07
1389887.6184,2370.6,13120.22,34234.62,33532.24,24518.21,28040.32,12839.56,8468.06
1389887.6204,2449.23,13076.26,34247.45,33547.21,24529.22,28051.43,12791.92,8477.74
1389887.6224,2882.39,13087.32,34259.75,33553.18,24528.65,28086.57,12833.26,8478.79
1389887.6244,3463.7,13164.28,34266.52,33558.8,24520.11,28140.36,12955.29,8476.5
1389887.6264,3930.0,13250.21,34259.75,33546.74,24496.99,28177.07,13087.66,8453.7
1389887.6284,4059.84,13316.92,34247.45,33532.24,24477.39,28197.58,13180.16,8429.72
1389887.6304,3728.25,13331.56,34232.67,33525.85,24469.28,28179.55,13171.39,8422.04
1389887.6324,3039.36,13262.42,34223.61,33532.19,24479.82,28121.62,13045.31,8430.58
1389887.6344,2473.93,13151.55,34237.06,33549.55,24509.81,28082.66,12892.15,8456.23
1389887.6364,2382.71,13085.27,34256.27,33566.77,24529.51,28057.39,12797.17,8473.83
1389887.6384,2717.45,13074.92,34266.38,33571.63,24529.6,28064.92,12805.61,8473.21
1389887.6404,3267.0,13123.04,34278.59,33570.72,24522.74,28109.55,12908.41,8457.09
1389887.6424,3799.01,13205.24,34276.11,33557.71,24505.19,28147.08,13041.83,8439.35
1389887.6444,4046.35,13277.63,34254.98,33523.99,24478.15,28160.29,13149.6,8428.0
1389887.6464,3872.97,13309.96,34233.0,33508.54,24461.18,28144.12,13175.92,8420.56
1389887.6484,3266.62,13273.43,34220.99,33505.92,24466.71,28104.59,13088.9,8426.33
1389887.6504,2601.81,13163.0,34224.09,33515.41,24491.5,28075.6,12941.89,8448.94
1389887.6524,2354.67,13086.99,34250.98,33547.21,24523.26,28078.75,12833.55,8477.16
1389887.6544,2571.39,13066.67,34274.77,33569.63,24540.38,28101.69,12813.43,8492.47
1389887.6564,3077.41,13099.15,34276.92,33578.54,24530.84,28122.95,12888.15,8481.5
1389887.6584,3623.63,13167.05,34267.52,33572.01,24508.91,28151.47,12999.73,8458.19
1389887.6604,4007.86,13255.36,34256.03,33552.79,24483.92,28164.15,13119.17,8435.2
1389887.6624,3975.49,13301.76,34234.67,33518.18,24464.09,28156.81,13179.02,8416.89
1389887.6644,3512.05,13303.81,34217.03,33499.2,24458.51,28122.14,13133.1,8412.79
1389887.6664,2786.45,13214.35,34215.65,33505.11,24479.68,28082.85,12990.05,8434.2
1389887.6684,2380.75,13126.28,34236.58,33528.57,24508.77,28064.87,12858.87,8465.77
1389887.6704,2438.74,13076.93,34258.13,33547.31,24526.31,28077.32,12801.79,8482.5
1389887.6724,2912.33,13107.35,34284.5,33565.67,24539.66,28117.99,12869.65,8494.38
1389887.6744,3451.87,13163.71,34281.73,33556.04,24524.21,28146.56,12974.45,8481.31
1389887.6764,3933.33,13246.73,34264.04,33535.96,24490.41,28164.1,13091.38,8450.7
1389887.6784,4032.23,13302.23,34244.35,33515.84,24467.61,28163.25,13172.2,8423.09
1389887.6804,3736.45,13324.45,34226.14,33505.11,24454.64,28131.44,13165.71,8405.35
1389887.6824,3018.9,13248.59,34213.74,33502.3,24462.27,28082.28,13039.26,8410.17
1389887.6844,2474.69,13143.25,34227.04,33525.76,24489.12,28050.09,12888.15,8433.68
1389887.6864,2364.59,13084.79,34257.7,33561.47,24521.26,28058.96,12805.8,8461.24
1389887.6884,2736.47,13079.12,34270.05,33568.82,24527.41,28090.15,12817.67,8462.1
1389887.6904,3246.02,13114.69,34265.95,33551.12,24512.25,28127.39,12906.12,8454.75
1389887.6924,3802.16,13202.05,34260.23,33540.68,24494.46,28167.87,13038.83,8445.41
1389887.6944,4040.38,13282.21,34248.36,33528.43,24479.11,28180.08,13150.26,8438.68
1389887.6964,3908.87,13328.03,34235.2,33523.71,24470.62,28159.67,13191.99,8430.39
1389887.6984,3281.5,13295.22,34229.52,33524.09,24478.72,28116.52,13107.35,8439.11
1389887.7004,2631.66,13191.75,34239.96,33538.73,24506.62,28080.23,12953.33,8461.67
1389887.7024,2339.27,13097.1,34253.55,33552.46,24529.6,28055.15,12827.45,8483.46
1389887.7044,2578.78,13068.44,34268.53,33566.15,24541.91,28070.17,12802.22,8490.71
1389887.7064,3070.88,13103.87,34278.16,33566.19,24536.76,28113.65,12880.33,8485.84
1389887.7084,3653.43,13186.65,34286.84,33567.29,24527.46,28159.57,13010.93,8476.21
1389887.7104,4025.51,13280.54,34280.26,33557.32,24509.34,28186.13,13132.96,8455.09
1389887.7124,4021.22,13333.56,34264.28,33541.49,24491.03,28185.51,13196.28,8437.3
1389887.7144,3546.05,13328.74,34249.5,33532.39,24483.02,28145.75,13148.79,8431.34
1389887.7164,2826.98,13231.18,34239.68,33531.34,24496.75,28092.77,12993.58,8440.64
1389887.7184,2387.05,13121.42,34233.62,33531.96,24510.58,28056.39,12844.85,8451.37
1389887.7204,2455.57,13072.02,34254.03,33550.17,24529.08,28066.3,12784.05,8469.73
1389887.7224,2899.46,13086.65,34269.19,33557.8,24528.36,28099.83,12830.64,8475.97
1389887.7244,3459.45,13142.54,34276.82,33554.46,24517.97,28139.07,12939.41,8465.96
1389887.7264,3933.72,13234.19,34273.44,33543.35,24494.17,28172.5,13078.98,8441.02
1389887.7284,4049.25,13293.41,34259.23,33526.33,24472.53,28177.07,13169.67,8420.71
1389887.7304,3750.23,13327.84,34248.55,33526.85,24469.86,28158.72,13173.77,8416.08
1389887.7324,3057.43,13266.28,34247.74,33538.25,24492.12,28126.2,13060.43,8435.54
1389887.7344,2486.9,13155.75,34246.64,33547.26,24509.48,28083.95,12900.21,8455.47
1389887.7364,2368.88,13082.98,34265.19,33570.96,24529.7,28084.33,12802.08,8478.36
1389887.7384,2739.1,13089.32,34285.98,33592.42,24539.62,28117.95,12827.11,8488.8
1389887.7404,3267.81,13133.86,34291.61,33582.64,24531.65,28149.56,12924.63,8481.17
1389887.7424,3819.51,13221.89,34281.07,33557.32,24508.29,28176.69,13059.95,8455.18
1389887.7444,4036.52,13272.19,34251.65,33521.94,24473.38,28168.82,13147.83,8419.09
1389887.7464,3910.11,13320.78,34242.06,33521.51,24465.28,28154.52,13183.98,8412.12
1389887.7484,3295.09,13288.12,34233.0,33523.85,24474.29,28120.52,13104.15,8423.52
1389887.7504,2637.77,13180.69,34224.13,33523.99,24486.59,28074.89,12947.7,8435.15
1389887.7524,2335.02,13085.41,34243.06,33548.88,24512.34,28067.26,12820.63,8460.0
1389887.7544,2590.23,13072.59,34273.39,33572.63,24535.18,28096.63,12805.18,8480.07
1389887.7564,3075.65,13109.92,34293.94,33581.74,24546.58,28143.41,12886.48,8482.74
1389887.7584,3677.89,13193.18,34290.99,33568.43,24526.03,28178.03,13014.6,8460.43
1389887.7604,4014.92,13263.27,34266.76,33538.06,24491.03,28195.15,13130.24,8427.38
1389887.7624,4026.18,13316.2,34242.2,33517.75,24466.95,28192.67,13197.38,8411.46
1389887.7644,3532.89,13304.43,34225.94,33509.45,24463.99,28148.13,13149.6,8414.27
1389887.7664,2845.48,13216.21,34224.75,33515.36,24482.01,28085.47,13002.49,8434.73
1389887.7684,2372.41,13108.54,34236.24,33534.82,24507.24,28059.15,12854.29,8458.57
1389887.7704,2456.09,13068.34,34253.41,33557.28,24523.93,28074.55,12801.27,8474.73
1389887.7724,2883.01,13082.41,34271.67,33568.58,24534.75,28113.75,12851.96,8481.22
1389887.7744,3485.97,13158.75,34286.55,33568.67,24530.13,28165.87,12977.94,8475.45
1389887.7764,3928.14,13237.81,34268.19,33538.92,24493.74,28188.38,13100.29,8444.26
1389887.7784,4058.74,13292.12,34241.73,33511.45,24464.37,28189.57,13185.55,8413.27
1389887.7804,3735.88,13314.77,34226.04,33508.73,24458.22,28165.63,13176.97,8405.54
1389887.7824,3071.21,13258.03,34226.95,33522.8,24476.44,28128.96,13064.58,8423.14
1389887.7844,2486.28,13151.6,34244.68,33547.17,24509.05,28096.25,12920.19,8457.14
1389887.7864,2390.24,13083.84,34266.43,33575.87,24534.13,28079.99,12823.96,8482.46
1389887.7884,2721.6,13075.64,34281.64,33581.21,24539.14,28100.54,12826.83,8486.94
1389887.7904,3266.95,13115.69,34281.69,33572.34,24525.12,28131.87,12906.84,8480.12
1389887.7924,3798.77,13196.23,34267.86,33551.27,24501.85,28160.58,13031.48,8459.19
1389887.7944,4058.65,13282.11,34262.33,33542.78,24491.5,28189.47,13150.69,8446.69
1389887.7964,3904.25,13324.64,34246.97,33533.39,24480.87,28178.6,13189.03,8433.25
1389887.7984,3304.91,13287.78,34236.48,33529.71,24483.83,28130.68,13101.44,8436.25
1389887.8004,2638.86,13188.98,34240.44,33546.5,24505.9,28088.86,12945.51,8457.04
1389887.8024,2352.14,13097.72,34252.41,33563.47,24522.12,28075.03,12821.68,8459.14
1389887.8044,2551.37,13057.33,34257.89,33565.19,24523.88,28085.38,12788.92,8455.9
1389887.8064,3046.66,13078.83,34256.8,33560.47,24514.92,28115.18,12854.34,8450.51
1389887.8084,3624.58,13161.95,34257.56,33555.23,24501.99,28149.18,12982.8,8442.98
1389887.8104,4002.71,13250.97,34242.97,33537.01,24478.25,28179.74,13117.7,8425.24
1389887.8124,3996.09,13308.81,34223.99,33511.36,24459.65,28181.03,13185.55,8410.93
1389887.8144,3542.81,13311.53,34221.65,33510.45,24469.86,28153.61,13151.93,8419.85
1389887.8164,2847.0,13235.71,34231.71,33527.86,24498.42,28115.66,13024.43,8449.6
1389887.8184,2404.55,13130.57,34245.88,33549.84,24522.93,28091.1,12883.38,8480.03
1389887.8204,2461.48,13088.37,34267.1,33573.44,24540.0,28098.78,12823.39,8500.53
1389887.8224,2883.1,13087.99,34272.53,33572.06,24534.18,28128.96,12856.29,8496.95
1389887.8244,3440.33,13134.67,34256.13,33545.07,24503.57,28154.33,12953.24,8465.48
1389887.8264,3903.96,13211.2,34241.78,33526.95,24477.82,28178.5,13073.11,8437.49
1389887.8284,4055.07,13289.83,34240.63,33523.04,24470.48,28196.1,13173.77,8429.86
1389887.8304,3747.08,13315.01,34235.67,33526.23,24468.47,28175.17,13172.53,8429.43
1389887.8324,3066.64,13250.4,34224.42,33517.98,24468.81,28115.32,13049.56,8429.24
1389887.8344,2480.55,13138.92,34230.76,33525.57,24491.55,28079.42,12893.34,8450.75
1389887.8364,2377.46,13072.16,34247.55,33542.68,24512.44,28074.65,12802.46,8467.72
1389887.8384,2703.33,13057.66,34262.9,33551.36,24521.78,28099.97,12802.13,8474.97
1389887.8404,3257.51,13109.69,34269.86,33552.36,24516.87,28139.98,12899.59,8470.49
1389887.8424,3792.72,13197.09,34267.14,33543.54,24498.37,28169.54,13033.63,8455.37
1389887.8444,4066.52,13280.97,34251.03,33525.61,24474.29,28187.14,13149.79,8430.2
1389887.8464,3903.77,13321.69,34243.3,33524.52,24469.66,28179.46,13182.21,8421.14
1389887.8484,3325.22,13300.33,34242.59,33532.91,24479.82,28145.32,13111.4,8434.2
1389887.8504,2652.6,13197.42,34254.46,33545.64,24510.48,28114.08,12964.25,8462.95
1389887.8524,2382.71,13110.16,34270.2,33564.71,24539.09,28103.4,12846.42,8492.28
1389887.8544,2572.58,13074.69,34280.83,33575.01,24545.82,28115.9,12811.19,8498.29
1389887.8564,3078.6,13104.87,34282.35,33576.21,24536.23,28144.84,12873.75,8486.27
1389887.8584,3629.11,13166.24,34270.24,33553.46,24509.48,28166.58,12986.66,8457.61
1389887.8604,4031.75,13255.69,34259.85,33533.2,24485.07,28196.48,13120.46,8436.82
1389887.8624,4018.93,13315.01,34246.07,33522.8,24472.53,28197.86,13187.93,8427.1
1389887.8644,3574.61,13329.79,34241.73,33533.39,24480.3,28171.97,13157.8,8435.54
1389887.8664,2846.19,13232.85,34233.43,33535.91,24492.7,28113.8,13011.74,8449.36
1389887.8684,2410.79,13126.57,34241.73,33551.51,24511.77,28088.48,12868.6,8466.77
1389887.8704,2453.23,13076.83,34260.09,33566.19,24528.22,28097.78,12806.08,8476.12
1389887.8724,2893.02,13087.18,34266.38,33568.91,24524.12,28126.72,12847.38,8476.4
1389887.8744,3449.01,13150.5,34275.3,33563.81,24514.58,28160.38,12960.2,8470.15
1389887.8764,3945.64,13240.86,34265.09,33542.78,24489.12,28181.7,13090.28,8442.59
1389887.8784,4063.85,13300.75,34245.78,33521.61,24470.09,28188.57,13176.16,8424.9
1389887.8804,3777.84,13326.84,34231.95,33516.55,24462.61,28159.62,13169.1,8420.13
1389887.8824,3076.08,13263.66,34231.38,33521.32,24480.87,28115.37,13056.18,8437.83
1389887.8844,2523.23,13162.85,34247.59,33542.06,24510.58,28086.9,12918.86,8468.44
1389887.8864,2381.23,13082.46,34258.04,33557.13,24528.7,28079.89,12817.15,8486.08
1389887.8884,2748.78,13086.65,34284.12,33576.97,24541.29,28114.94,12837.7,8499.05
1389887.8904,3269.91,13139.06,34299.33,33581.59,24538.66,28168.01,12944.41,8495.47
1389887.8924,3820.71,13221.41,34290.99,33567.38,24513.3,28204.54,13070.49,8469.68
1389887.8944,4059.74,13287.26,34270.96,33544.64,24490.74,28219.66,13170.43,8447.17
1389887.8964,3928.9,13319.16,34245.78,33524.56,24467.14,28191.0,13190.8,8423.85
1389887.8984,3316.55,13289.64,34229.14,33516.74,24468.9,28127.05,13107.78,8426.05
1389887.9004,2667.19,13188.98,34228.76,33525.71,24489.69,28086.81,12957.05,8446.5
1389887.9024,2363.83,13097.48,34240.58,33540.87,24513.1,28074.32,12836.98,8466.24
1389887.9044,2590.56,13075.88,34258.94,33557.9,24527.84,28099.83,12820.58,8483.51
1389887.9064,3059.91,13096.1,34257.23,33549.41,24513.77,28128.91,12871.22,8471.16
1389887.9084,3617.81,13156.94,34249.5,33533.43,24486.12,28159.81,12984.13,8445.55
1389887.9104,3983.74,13237.38,34240.01,33521.89,24466.9,28182.41,13106.54,8426.86
1389887.9124,4002.62,13294.75,34230.05,33520.18,24457.89,28178.55,13177.78,8422.28
1389887.9144,3562.02,13311.58,34226.85,33527.33,24465.23,28157.05,13145.16,8431.91
1389887.9164,2860.36,13225.75,34232.29,33532.39,24486.83,28115.42,13006.4,8448.51
1389887.9184,2413.32,13123.7,34241.35,33539.25,24505.81,28079.18,12859.87,8465.91
1389887.9204,2464.49,13080.07,34267.72,33565.29,24529.03,28088.38,12804.41,8488.13
1389887.9224,2895.98,13096.05,34279.73,33574.73,24530.56,28122.33,12853.77,8491.23
1389887.9244,3431.42,13140.68,34270.91,33556.75,24509.24,28149.51,12952.04,8470.44
1389887.9264,3904.53,13227.13,34256.89,33531.91,24485.02,28176.07,13081.03,8440.69
1389887.9284,4035.85,13288.12,34239.96,33513.98,24472.38,28190.38,13168.72,8427.0
1389887.9304,3766.58,13322.4,34229.66,33512.98,24468.47,28174.59,13174.96,8424.28
1389887.9324,3082.37,13258.84,34221.46,33519.94,24473.81,28126.24,13054.85,8423.47
1389887.9344,2526.43,13159.47,34225.61,33538.25,24494.22,28084.81,12904.84,8431.91
