TimeStamp,P3,P4,F3,F4,FP1,I1,I2,FP2
1390048.7137,2133.23,11571.22,33206.47,32023.34,24247.12,27307.23,11430.41,8609.49
1390048.7157,2581.55,11618.47,33216.67,32024.63,24246.98,27346.23,11519.05,8607.15
1390048.7177,3010.46,11691.29,33210.47,32008.22,24226.57,27371.36,11628.01,8585.31
1390048.7197,3194.05,11755.61,33195.64,31989.01,24206.78,27383.04,11719.8,8563.42
1390048.7217,3034.12,11787.8,33189.97,31992.44,24201.21,27371.6,11744.21,8557.99
1390048.7237,2509.64,11752.32,33178.67,31986.48,24201.59,27326.78,11666.01,8562.38
1390048.7257,1967.62,11655.95,33183.01,31995.3,24219.37,27293.4,11529.21,8581.07
1390048.7277,1779.22,11591.63,33205.56,32028.63,24245.31,27289.82,11432.51,8610.39
1390048.7297,2004.1,11579.18,33224.16,32042.55,24253.71,27309.71,11422.11,8619.69
1390048.7317,2430.11,11611.08,33225.64,32029.78,24244.41,27341.32,11489.49,8607.91
1390048.7337,2888.35,11674.55,33227.21,32017.85,24232.77,27375.7,11597.59,8597.28
1390048.7357,3177.55,11742.16,33212.57,31998.88,24214.8,27391.48,11697.63,8579.3
1390048.7377,3126.1,11772.59,33189.73,31980.95,24195.24,27383.04,11742.07,8559.75
1390048.7397,2722.6,11772.68,33181.39,31984.76,24201.83,27355.53,11704.26,8565.81
1390048.7417,2119.45,11682.08,33179.24,31985.86,24213.89,27312.81,11563.83,8577.3
1390048.7437,1803.59,11600.88,33191.4,32005.84,24238.06,27295.16,11456.4,8592.99
1390048.7457,1899.19,11569.84,33209.04,32023.48,24254.32,27307.7,11424.3,8609.39
1390048.7477,2287.86,11590.72,33220.25,32025.2,24249.94,27333.69,11465.17,8606.01
1390048.7497,2736.14,11638.6,33219.1,32025.05,24236.11,27360.16,11555.82,8593.23
1390048.7517,3128.67,11719.51,33209.71,32017.76,24214.32,27385.67,11669.97,8574.2
1390048.7537,3184.94,11759.14,33189.35,31995.68,24193.1,27391.48,11735.39,8556.94
1390048.7557,2906.37,11774.4,33177.09,31985.95,24188.0,27359.68,11727.48,8552.65
1390048.7577,2305.46,11706.88,33176.47,31990.72,24203.83,27318.81,11619.86,8563.95
1390048.7597,1877.59,11622.0,33187.92,32010.42,24229.1,27294.07,11497.17,8588.17
1390048.7617,1807.98,11566.35,33201.13,32032.45,24241.4,27292.92,11418.58,8600.86
1390048.7637,2144.24,11576.27,33215.29,32037.88,24244.74,27323.06,11442.66,8604.1
1390048.7657,2569.72,11611.18,33214.86,32016.38,24230.53,27353.0,11523.49,8584.17
1390048.7677,3020.95,11685.99,33202.08,31993.77,24209.17,27379.75,11633.92,8555.32
1390048.7697,3176.12,11740.64,33185.82,31968.31,24195.44,27392.92,11722.76,8547.69
1390048.7717,3045.03,11778.55,33181.48,31967.07,24192.62,27381.57,11744.79,8553.65
1390048.7737,2516.84,11746.07,33186.11,31982.04,24211.27,27352.15,11670.64,8577.63
1390048.7757,1999.47,11659.34,33191.35,31998.11,24232.49,27322.01,11546.76,8596.95
1390048.7777,1783.7,11587.62,33198.55,32018.62,24249.27,27311.66,11445.62,8611.82
1390048.7797,2020.5,11572.27,33206.37,32029.82,24246.22,27319.96,11429.98,8608.72
1390048.7817,2418.61,11597.3,33213.52,32024.34,24240.16,27345.85,11489.58,8601.14
1390048.7837,2901.03,11670.97,33217.34,32015.28,24226.33,27379.33,11599.59,8588.03
1390048.7857,3176.4,11741.73,33207.61,32000.12,24205.59,27401.5,11703.97,8572.77
1390048.7877,3155.14,11782.17,33187.92,31987.38,24191.53,27392.34,11752.56,8558.23
1390048.7897,2707.82,11759.66,33168.89,31975.08,24186.14,27351.53,11697.72,8553.74
1390048.7917,2132.65,11673.59,33165.13,31982.47,24198.01,27308.18,11565.16,8561.71
1390048.7937,1789.95,11594.96,33183.29,32005.79,24227.1,27290.78,11445.71,8584.98
1390048.7957,1895.09,11564.4,33198.36,32023.86,24237.97,27295.5,11404.66,8587.22
1390048.7977,2250.72,11569.31,33199.31,32024.05,24232.96,27323.01,11447.86,8563.47
1390048.7997,2735.09,11625.1,33204.94,32032.02,24224.24,27358.73,11540.7,8562.38
1390048.8017,3108.02,11707.59,33207.09,32028.92,24209.45,27391.63,11657.43,8564.71
1390048.8037,3188.52,11759.95,33196.64,32006.89,24193.53,27394.63,11731.67,8562.38
1390048.8057,2897.07,11781.79,33191.4,31995.82,24190.62,27368.41,11727.14,8565.67
1390048.8077,2322.34,11717.46,33188.59,31990.01,24203.49,27331.45,11620.24,8579.06
1390048.8097,1863.19,11620.95,33190.11,32001.02,24221.61,27299.22,11489.82,8593.75
1390048.8117,1809.41,11562.87,33199.84,32020.86,24236.35,27292.83,11408.28,8606.53
1390048.8137,2124.45,11568.45,33207.61,32031.3,24238.06,27317.43,11428.07,8604.24
1390048.8157,2580.69,11622.29,33221.2,32044.8,24243.36,27363.26,11522.49,8606.05
1390048.8177,3022.1,11705.78,33219.82,32029.06,24236.06,27396.3,11639.74,8600.28
1390048.8197,3196.67,11755.13,33196.02,31995.35,24213.03,27398.64,11723.42,8580.88
1390048.8217,3043.56,11779.5,33174.38,31975.99,24195.39,27375.99,11740.88,8561.04
1390048.8237,2503.92,11733.91,33163.65,31971.51,24194.48,27329.35,11647.89,8563.23
1390048.8257,1978.83,11648.04,33176.19,31988.62,24217.99,27298.93,11517.96,8588.22
1390048.8277,1776.03,11576.32,33198.31,32014.61,24247.08,27291.16,11422.83,8612.11
1390048.8297,2012.87,11569.07,33215.91,32029.11,24257.76,27308.66,11417.82,8622.6
1390048.8317,2408.55,11592.25,33218.67,32024.29,24246.36,27337.98,11478.71,8613.3
1390048.8337,2894.4,11667.06,33221.53,32022.38,24235.44,27373.27,11590.29,8598.85
1390048.8357,3170.92,11735.11,33213.05,32009.32,24219.23,27393.96,11694.86,8582.21
1390048.8377,3138.73,11774.59,33191.16,31986.76,24198.58,27383.71,11740.73,8558.7
1390048.8397,2703.33,11760.57,33181.43,31983.67,24198.44,27351.81,11688.28,8557.65
1390048.8417,2134.99,11678.6,33183.29,31988.15,24214.41,27314.14,11561.87,8571.82
1390048.8437,1781.42,11580.61,33192.83,32001.88,24231.72,27288.82,11438.51,8586.69
1390048.8457,1898.0,11563.49,33217.82,32033.49,24246.46,27300.98,11404.66,8603.86
1390048.8477,2257.3,11576.03,33220.25,32040.41,24240.69,27328.4,11446.05,8600.05
1390048.8497,2745.06,11635.97,33217.82,32038.26,24230.29,27357.82,11539.89,8579.06
1390048.8517,3095.91,11706.88,33202.6,32019.0,24210.69,27387.05,11650.61,8562.85
1390048.8537,3199.24,11762.33,33188.01,32001.59,24197.49,27398.11,11730.72,8564.0
1390048.8557,2894.31,11774.64,33178.52,31987.72,24197.96,27367.4,11720.04,8573.87
1390048.8577,2328.87,11714.51,33176.66,31982.9,24208.83,27322.49,11617.23,8580.83
1390048.8597,1844.22,11606.12,33175.33,31980.9,24218.32,27291.54,11482.53,8587.41
1390048.8617,1809.84,11555.58,33188.16,31997.78,24228.15,27294.11,11408.38,8595.94
1390048.8637,2108.76,11551.05,33195.55,32000.35,24227.29,27313.09,11415.86,8597.47
1390048.8657,2569.87,11602.07,33204.46,31998.88,24220.85,27348.24,11500.41,8590.08
1390048.8677,2998.5,11681.13,33203.75,31994.49,24210.03,27374.51,11616.28,8575.06
1390048.8697,3198.58,11746.84,33184.15,31972.08,24189.67,27389.34,11713.27,8553.89
1390048.8717,3023.24,11770.44,33168.32,31962.11,24181.04,27377.37,11735.73,8543.06
1390048.8737,2514.84,11740.5,33164.36,31968.65,24197.01,27343.51,11661.01,8554.41
1390048.8757,1967.05,11647.99,33168.22,31979.76,24221.71,27305.13,11528.97,8577.3
1390048.8777,1774.36,11568.6,33175.42,31991.82,24230.96,27278.09,11423.16,8589.7
1390048.8797,1971.53,11550.48,33188.06,32003.07,24238.11,27291.02,11403.37,8596.33
1390048.8817,2406.17,11585.52,33202.18,32011.8,24239.97,27329.16,11470.94,8594.28
1390048.8837,2871.66,11655.62,33204.85,32007.56,24230.01,27365.07,11585.28,8581.64
1390048.8857,3175.64,11735.82,33194.74,32001.26,24212.84,27380.37,11693.86,8565.62
1390048.8877,3122.38,11774.21,33174.76,31988.53,24191.76,27375.51,11744.45,8546.73
1390048.8897,2719.35,11760.95,33165.03,31980.23,24185.95,27340.94,11692.19,8547.69
1390048.8917,2131.03,11677.41,33167.08,31978.56,24201.16,27302.65,11568.74,8568.76
1390048.8937,1795.2,11590.67,33181.39,31994.92,24221.61,27280.05,11450.44,8583.64
1390048.8957,1877.59,11556.2,33196.83,32011.89,24233.82,27284.05,11406.52,8590.03
1390048.8977,2257.3,11567.98,33204.18,32012.42,24232.1,27310.95,11443.47,8587.74
1390048.8997,2713.2,11620.52,33198.27,31999.73,24221.57,27344.9,11538.08,8583.5
1390048.9017,3095.96,11698.39,33191.88,31982.71,24205.02,27372.98,11650.71,8571.86
1390048.9037,3182.08,11763.67,33189.21,31974.37,24200.01,27386.29,11731.39,8566.62
1390048.9057,2911.38,11786.99,33184.1,31983.71,24203.92,27371.31,11731.1,8565.81
1390048.9077,2322.86,11729.05,33180.57,31996.4,24214.08,27334.22,11629.06,8567.1
1390048.9097,1876.69,11639.5,33192.83,32019.67,24237.68,27308.18,11503.89,8595.9
1390048.9117,1816.51,11582.33,33205.23,32033.16,24248.94,27299.55,11424.83,8615.26
1390048.9137,2116.25,11570.88,33209.61,32028.15,24242.21,27303.6,11431.84,8614.45
1390048.9157,2554.08,11605.88,33207.09,32004.07,24226.53,27331.88,11503.89,8596.85
1390048.9177,2991.68,11684.37,33206.13,31996.64,24213.41,27370.27,11621.38,8581.5
1390048.9197,3195.95,11757.71,33200.17,31989.72,24200.68,27389.2,11723.66,8569.29
1390048.9217,3032.11,11777.12,33176.0,31974.7,24183.32,27367.98,11742.64,8554.36
1390048.9237,2509.12,11734.06,33154.49,31967.83,24179.7,27321.39,11661.39,8547.26
1390048.9257,1966.38,11640.69,33155.83,31976.89,24202.4,27290.11,11533.93,8562.85
1390048.9277,1775.79,11576.56,33173.09,32000.16,24226.91,27284.58,11441.47,8586.31
1390048.9297,1987.55,11560.11,33194.88,32017.09,24243.12,27300.12,11421.3,8602.29
1390048.9317,2419.66,11597.16,33210.66,32020.95,24245.79,27337.7,11494.21,8602.81
1390048.9337,2882.62,11664.11,33214.1,32018.86,24229.0,27374.27,11604.6,8587.74
1390048.9357,3176.02,11735.87,33199.08,32002.5,24202.68,27390.86,11707.5,8555.65
1390048.9377,3136.83,11774.16,33185.3,31991.2,24195.1,27385.1,11749.08,8545.78
1390048.9397,2742.24,11779.6,33181.48,31990.91,24204.97,27356.72,11713.32,8562.38
1390048.9417,2129.41,11686.37,33172.47,31982.47,24212.41,27308.61,11577.51,8576.82
1390048.9437,1794.1,11595.49,33178.57,31997.97,24224.28,27281.81,11455.25,8589.94
1390048.9457,1869.92,11557.58,33193.74,32018.81,24233.49,27286.01,11403.66,8596.99
1390048.9477,2259.92,11576.46,33202.8,32027.15,24230.96,27313.76,11448.0,8594.9
1390048.9497,2706.62,11628.06,33207.52,32022.77,24224.0,27349.38,11546.33,8586.12
1390048.9517,3106.79,11713.94,33205.7,32008.79,24210.03,27379.99,11662.34,8574.3
1390048.9537,3182.08,11764.24,33197.41,31987.34,24197.87,27391.63,11735.77,8566.52
1390048.9557,2915.91,11781.65,33181.39,31974.03,24185.8,27361.83,11730.39,8554.22
1390048.9577,2311.23,11712.27,33171.23,31964.5,24191.43,27311.76,11616.71,8558.23
1390048.9597,1876.74,11622.86,33179.24,31974.41,24214.65,27289.97,11491.54,8580.3
1390048.9617,1814.37,11577.89,33203.61,32010.75,24247.84,27297.98,11426.64,8611.25
1390048.9637,2152.73,11596.63,33225.78,32038.69,24263.72,27338.36,11459.73,8624.6
1390048.9657,2570.68,11630.44,33224.49,32036.69,24250.7,27366.93,11528.83,8614.49
1390048.9677,3021.96,11699.11,33207.47,32024.67,24223.57,27380.33,11627.87,8589.94
1390048.9697,3186.51,11752.8,33185.3,32004.84,24202.11,27393.3,11717.94,8567.95
1390048.9717,3058.96,11785.79,33171.37,31993.63,24187.62,27379.56,11745.41,8551.26
1390048.9737,2526.76,11749.17,33170.08,31984.05,24195.91,27342.75,11667.87,8555.89
1390048.9757,2010.54,11660.48,33175.14,31993.73,24217.08,27309.33,11537.22,8579.88
1390048.9777,1781.03,11579.47,33185.49,32008.56,24235.35,27295.35,11435.89,8599.0
1390048.9797,2013.78,11567.88,33195.98,32016.66,24239.26,27307.56,11420.2,8606.34
1390048.9817,2396.97,11585.62,33195.07,32009.41,24227.91,27322.82,11462.12,8592.51
1390048.9837,2865.74,11643.55,33187.44,31999.31,24207.4,27354.43,11562.92,8558.94
1390048.9857,3140.26,11711.5,33178.14,31988.77,24191.05,27371.6,11667.21,8538.39
1390048.9877,3135.49,11763.34,33173.47,31985.72,24178.7,27370.89,11724.85,8535.1
1390048.9897,2714.49,11757.9,33167.51,31976.27,24175.69,27337.51,11681.84,8543.54
1390048.9917,2149.49,11682.08,33171.47,31972.22,24192.77,27300.03,11561.82,8563.47
1390048.9937,1803.26,11605.17,33194.59,31994.35,24226.95,27289.11,11452.63,8594.56
1390048.9957,1912.55,11583.62,33220.68,32025.2,24248.98,27305.32,11419.97,8616.5
1390048.9977,2263.98,11595.3,33227.02,32024.77,24241.4,27328.64,11455.54,8603.96
1390048.9997,2724.46,11637.59,33215.57,32021.0,24222.81,27355.77,11537.93,8572.39
1390049.0017,3096.15,11715.22,33206.04,32010.99,24210.27,27380.18,11647.85,8564.28
1390049.0037,3184.84,11765.24,33190.06,31995.4,24195.53,27385.05,11719.42,8559.18
1390049.0057,2904.13,11781.12,33176.71,31987.81,24188.47,27360.78,11713.89,8558.18
1390049.0077,2332.74,11722.09,33174.33,31987.1,24196.15,27319.53,11609.46,8568.48
1390049.0097,1880.6,11634.02,33186.44,31999.54,24216.7,27294.78,11486.2,8587.41
1390049.0117,1817.13,11576.75,33196.21,32017.04,24233.11,27291.3,11411.67,8601.86
1390049.0137,2118.87,11574.94,33194.69,32013.9,24233.15,27315.86,11431.84,8600.33
1390049.0157,2558.42,11615.42,33199.98,32009.18,24234.44,27348.52,11508.23,8599.47
1390049.0177,2999.21,11691.52,33195.88,31996.3,24215.99,27367.98,11618.85,8579.92
1390049.0197,3181.08,11745.45,33185.3,31983.95,24198.11,27389.15,11713.32,8560.94
1390049.0217,3048.04,11783.17,33172.52,31980.33,24188.71,27379.52,11743.36,8551.03
1390049.0237,2525.09,11746.26,33161.79,31974.75,24190.62,27341.37,11660.96,8553.65
1390049.0257,1994.9,11656.57,33164.36,31982.04,24205.16,27307.9,11528.83,8566.91
1390049.0277,1784.99,11581.37,33184.96,32002.79,24228.0,27296.07,11430.17,8593.18
1390049.0297,2007.15,11567.4,33193.45,32009.32,24227.62,27296.45,11418.58,8587.6
1390049.0317,2399.11,11594.63,33198.74,32017.28,24222.42,27325.78,11476.57,8579.21
1390049.0337,2876.23,11666.25,33196.02,32016.19,24205.5,27357.96,11580.23,8574.87
1390049.0357,3147.27,11727.91,33184.1,31996.68,24186.28,27374.94,11676.79,8562.52
1390049.0377,3142.5,11774.83,33174.52,31985.67,24176.7,27374.22,11731.15,8552.93
1390049.0397,2724.36,11764.81,33166.46,31981.14,24178.7,27345.09,11684.09,8553.41
1390049.0417,2164.03,11695.91,33167.51,31989.34,24192.38,27311.14,11572.74,8569.91
1390049.0437,1809.88,11610.13,33184.48,32007.7,24221.8,27298.64,11462.5,8594.47
1390049.0457,1912.45,11582.85,33206.75,32021.91,24238.35,27294.59,11413.24,8608.77
1390049.0477,2252.1,11579.9,33210.95,32021.14,24234.39,27316.48,11437.94,8603.29
1390049.0497,2721.41,11629.15,33204.7,32008.75,24217.37,27345.61,11529.64,8583.02
1390049.0517,3068.97,11691.38,33187.25,31985.19,24190.67,27358.44,11632.4,8553.17
1390049.0537,3182.27,11752.27,33176.95,31979.61,24178.94,27371.89,11721.66,8542.44
1390049.0557,2899.55,11775.45,33171.85,31977.99,24182.85,27359.82,11724.71,8547.35
1390049.0577,2349.38,11725.33,33170.23,31981.38,24196.96,27320.67,11625.1,8562.04
1390049.0597,1873.64,11629.73,33179.33,31998.92,24222.09,27292.45,11493.21,8587.22
1390049.0617,1827.48,11578.8,33195.07,32025.48,24238.78,27285.53,11412.72,8601.24
1390049.0637,2115.06,11578.08,33204.13,32035.02,24237.73,27308.71,11427.74,8605.0
1390049.0657,2572.73,11625.77,33213.29,32038.79,24225.76,27350.1,11514.28,8598.61
1390049.0677,3005.17,11708.69,33221.82,32039.84,24218.28,27395.3,11638.36,8591.08
1390049.0697,3216.22,11776.83,33214.14,32025.48,24206.64,27419.48,11738.4,8579.54
1390049.0717,3066.64,11806.78,33200.7,32016.42,24201.3,27408.27,11761.43,8572.48
1390049.0737,2579.74,11780.98,33195.93,32021.81,24212.74,27376.46,11693.0,8584.07
1390049.0757,2023.12,11683.04,33196.02,32020.0,24230.67,27339.13,11562.25,8596.37
1390049.0777,1827.57,11616.57,33214.1,32040.5,24253.75,27326.54,11466.41,8620.93
1390049.0797,2032.04,11608.75,33236.65,32062.25,24269.11,27352.77,11457.11,8637.43
1390049.0817,2449.56,11634.97,33239.99,32063.73,24262.38,27388.81,11520.86,8629.37
1390049.0837,2899.36,11697.01,33229.78,32047.42,24244.93,27410.51,11620.67,8614.83
1390049.0857,3203.44,11769.39,33218.91,32031.68,24228.43,27424.82,11723.19,8597.33
1390049.0877,3170.87,11809.06,33207.47,32021.72,24215.84,27424.91,11775.78,8577.06
1390049.0897,2775.72,11802.44,33197.12,32020.72,24210.31,27386.38,11729.53,8571.91
1390049.0917,2189.3,11724.9,33197.5,32023.05,24221.18,27343.51,11609.32,8582.74
1390049.0937,1849.37,11638.45,33205.66,32033.3,24239.5,27306.27,11482.67,8594.85
1390049.0957,1909.64,11590.24,33206.32,32028.63,24241.83,27291.49,11415.44,8599.85
1390049.0977,2271.8,11593.2,33204.37,32028.68,24239.35,27313.52,11444.95,8601.81
1390049.0997,2717.54,11635.69,33195.21,32011.7,24220.9,27336.03,11530.54,8588.41
1390049.1017,3089.38,11700.06,33182.29,31987.38,24194.34,27354.05,11633.02,8566.43
1390049.1037,3178.74,11761.0,33171.09,31981.52,24183.51,27365.35,11714.13,8558.13
1390049.1057,2916.34,11780.74,33165.22,31984.0,24180.94,27349.05,11716.8,8553.46
1390049.1077,2340.36,11721.85,33159.59,31981.9,24188.09,27310.52,11617.09,8561.18
1390049.1097,1879.69,11620.48,33166.56,31987.72,24206.69,27278.28,11481.95,8577.73
1390049.1117,1812.03,11566.31,33181.58,32004.26,24220.85,27270.89,11402.7,8579.45
1390049.1137,2108.53,11564.07,33194.4,32016.23,24226.14,27295.16,11416.96,8584.98
1390049.1157,2555.18,11609.94,33203.75,32014.99,24222.04,27330.78,11504.56,8588.46
1390049.1177,2994.25,11680.56,33206.9,32005.7,24207.88,27358.3,11612.85,8579.54
1390049.1197,3204.78,11756.61,33202.22,32000.59,24193.72,27382.19,11712.74,8570.29
1390049.1217,3060.96,11792.61,33189.92,32001.45,24184.18,27376.94,11743.93,8561.47
1390049.1237,2564.0,11766.96,33182.62,32006.6,24187.57,27342.61,11676.6,8565.71
1390049.1257,2008.63,11668.02,33179.53,32014.18,24200.3,27297.93,11533.4,8579.64
1390049.1277,1806.26,11599.35,33191.83,32036.31,24221.04,27280.81,11436.03,8598.47
1390049.1297,2006.24,11584.52,33210.0,32047.61,24239.11,27298.6,11416.15,8613.78
1390049.1317,2432.87,11622.95,33224.06,32048.8,24246.6,27341.18,11484.58,8620.26
1390049.1337,2883.91,11678.79,33219.39,32033.4,24232.2,27372.36,11586.62,8598.19
1390049.1357,3178.88,11743.83,33196.74,32005.08,24203.97,27379.99,11677.17,8562.85
1390049.1377,3141.17,11781.65,33183.82,31992.77,24190.48,27373.36,11722.76,8555.65
1390049.1397,2762.51,11782.12,33179.86,31999.59,24192.96,27342.13,11683.66,8563.23
1390049.1417,2169.99,11700.06,33182.29,32003.12,24207.79,27302.41,11562.06,8576.44
1390049.1437,1835.44,11618.0,33198.36,32015.95,24228.24,27285.48,11453.49,8597.33
1390049.1457,1899.86,11582.81,33220.91,32036.45,24245.93,27298.79,11414.53,8613.68
1390049.1477,2282.52,11600.88,33230.02,32043.46,24247.55,27330.74,11461.93,8614.21
1390049.1497,2726.7,11641.55,33225.21,32029.39,24232.77,27361.16,11548.23,8598.28
1390049.1517,3126.72,11717.61,33214.53,32008.84,24207.55,27391.06,11664.63,8574.2
1390049.1537,3193.28,11762.1,33197.12,31987.62,24184.52,27394.15,11736.87,8549.45
1390049.1557,2939.99,11787.23,33187.63,31993.82,24180.42,27370.65,11736.78,8546.64
1390049.1577,2347.42,11723.71,33177.81,31999.35,24195.48,27324.49,11624.0,8567.0
1390049.1597,1905.3,11633.54,33180.53,32015.71,24218.37,27293.45,11494.83,8592.37
1390049.1617,1814.41,11574.22,33195.93,32035.07,24238.92,27283.39,11412.67,8615.02
1390049.1637,2133.04,11575.46,33207.37,32040.6,24245.41,27308.99,11428.74,8620.36
1390049.1657,2549.93,11611.84,33209.42,32041.79,24239.07,27354.63,11509.85,8611.63
1390049.1677,3005.89,11690.9,33206.75,32041.98,24221.18,27380.66,11622.62,8592.85
1390049.1697,3179.93,11746.46,33189.06,32021.0,24201.01,27384.71,11710.12,8573.58
1390049.1717,3066.11,11784.79,33179.0,32013.32,24192.53,27368.6,11745.26,8566.91
1390049.1737,2547.93,11758.33,33179.14,32009.32,24202.73,27336.17,11674.6,8580.26
1390049.1757,2025.8,11670.02,33182.34,32011.08,24223.04,27301.7,11547.85,8600.57
1390049.1777,1777.65,11586.81,33185.25,32016.14,24232.77,27278.71,11436.42,8613.06
1390049.1797,1994.23,11574.6,33196.74,32031.35,24235.73,27296.45,11421.4,8617.35
1390049.1817,2385.47,11597.92,33200.89,32026.53,24229.48,27326.97,11478.66,8610.44
1390049.1837,2867.13,11663.49,33202.37,32014.71,24221.85,27358.87,11585.14,8598.52
1390049.1857,3157.52,11735.87,33188.78,32000.35,24206.55,27381.14,11692.24,8583.98
1390049.1877,3155.28,11780.64,33171.71,31993.77,24191.38,27377.99,11747.17,8568.1
1390049.1897,2735.42,11772.35,33154.73,31991.2,24180.94,27345.14,11703.59,8555.03
1390049.1917,2167.56,11700.01,33157.78,32009.51,24197.96,27310.61,11583.81,8561.99
1390049.1937,1805.93,11612.85,33171.56,32030.87,24223.28,27289.11,11465.5,8587.55
1390049.1957,1884.22,11565.26,33185.3,32038.02,24238.78,27291.87,11413.72,8607.15
1390049.1977,2247.38,11584.04,33196.17,32035.45,24241.12,27324.16,11457.59,8617.97
1390049.1997,2722.41,11646.8,33202.08,32032.54,24225.67,27363.97,11558.25,8607.77
1390049.2017,3102.97,11728.53,33197.12,32025.01,24213.13,27392.3,11673.79,8592.46
1390049.2037,3192.85,11772.25,33181.58,32009.13,24200.49,27393.96,11744.41,8578.54
1390049.2057,2915.53,11779.74,33161.69,31996.4,24187.28,27362.06,11732.2,8564.57
1390049.2077,2339.98,11719.66,33161.21,32003.31,24195.15,27320.01,11626.53,8575.73
1390049.2097,1880.12,11630.87,33173.9,32019.05,24213.36,27282.67,11493.3,8591.46
1390049.2117,1805.4,11571.12,33188.63,32033.02,24235.82,27277.9,11412.34,8593.37
1390049.2137,2113.82,11579.75,33199.08,32044.61,24245.98,27307.04,11432.41,8596.99
1390049.2157,2545.4,11616.76,33201.98,32047.18,24238.78,27339.6,11509.37,8602.81
1390049.2177,2996.59,11693.91,33194.5,32029.49,24217.94,27371.98,11625.48,8594.94
1390049.2197,3191.23,11753.85,33183.48,32007.03,24202.25,27395.3,11723.04,8589.79
1390049.2217,3066.83,11790.56,33171.71,31996.3,24190.76,27385.71,11752.23,8581.93
1390049.2237,2551.46,11759.47,33166.7,31999.54,24196.1,27353.34,11681.51,8584.55
1390049.2257,2032.71,11682.08,33176.24,32021.62,24220.18,27331.55,11568.21,8605.58
1390049.2277,1795.2,11597.21,33184.25,32030.11,24234.54,27308.51,11450.82,8618.74
1390049.2297,2006.01,11587.48,33197.07,32033.02,24237.02,27310.76,11422.83,8622.7
1390049.2317,2396.15,11610.94,33203.27,32034.35,24229.1,27340.51,11484.86,8612.73
1390049.2337,2883.1,11682.56,33203.56,32033.88,24214.32,27369.31,11593.72,8591.08
1390049.2357,3165.72,11751.46,33199.98,32028.25,24199.63,27390.05,11706.4,8581.78
1390049.2377,3159.48,11789.9,33179.29,32011.08,24175.79,27373.79,11749.22,8556.7
1390049.2397,2748.54,11779.98,33170.04,32001.21,24173.83,27340.22,11700.11,8549.88
1390049.2417,2191.21,11715.51,33178.71,32012.66,24200.54,27314.71,11593.53,8578.02
1390049.2437,1811.12,11617.23,33187.2,32027.3,24224.62,27286.87,11467.98,8603.76
1390049.2457,1902.01,11583.09,33200.17,32055.14,24234.39,27288.63,11417.29,8609.73
1390049.2477,2251.91,11596.54,33214.72,32075.31,24234.49,27324.3,11457.06,8600.81
1390049.2497,2732.85,11659.62,33223.44,32081.04,24228.29,27362.97,11554.39,8594.99
1390049.2517,3101.87,11727.29,33215.1,32060.67,24208.5,27390.63,11662.15,8580.97
1390049.2537,3218.13,11783.32,33198.36,32027.49,24192.77,27407.12,11744.36,8573.82
1390049.2557,2934.79,11799.15,33186.58,32008.08,24198.11,27386.57,11739.97,8586.79
1390049.2577,2374.84,11742.5,33181.0,31999.97,24212.79,27333.31,11639.02,8598.23
1390049.2597,1888.7,11640.03,33178.29,32002.98,24226.62,27299.03,11505.32,8607.58
1390049.2617,1839.3,11589.96,33192.92,32022.53,24243.36,27299.31,11431.93,8616.88
1390049.2637,2128.65,11592.34,33210.47,32035.97,24249.6,27328.54,11451.1,8609.92
1390049.2657,2584.51,11639.17,33222.11,32044.51,24245.46,27368.79,11534.02,8602.38
1390049.2677,3019.38,11718.37,33223.35,32044.13,24234.97,27401.55,11647.75,8607.72
1390049.2697,3235.15,11785.84,33211.76,32030.06,24218.28,27419.09,11749.65,8601.95
1390049.2717,3084.95,11808.11,33194.45,32014.42,24203.73,27405.41,11772.16,8590.84
1390049.2737,2577.45,11763.48,33170.61,31998.78,24195.86,27357.72,11684.04,8582.31
1390049.2757,2015.3,11667.06,33169.8,31997.92,24211.31,27321.1,11549.33,8597.28
1390049.2777,1805.83,11595.73,33183.24,32015.09,24229.48,27307.28,11446.1,8618.02
1390049.2797,1995.04,11577.37,33193.5,32023.48,24236.01,27319.91,11428.55,8618.78
1390049.2817,2404.74,11604.55,33197.45,32022.38,24230.67,27347.71,11487.77,8607.82
1390049.2837,2850.72,11665.15,33193.4,32011.7,24212.32,27376.13,11585.24,8584.69
1390049.2857,3162.67,11735.63,33181.48,32001.83,24191.95,27396.35,11686.14,8565.38
1390049.2877,3144.79,11778.93,33170.75,31995.59,24181.18,27395.44,11743.74,8544.88
1390049.2897,2763.18,11779.02,33166.98,32008.84,24184.09,27366.4,11705.3,8536.77
1390049.2917,2180.29,11707.59,33178.71,32022.19,24210.69,27330.31,11591.29,8574.34
1390049.2937,1838.49,11624.67,33201.79,32043.89,24239.11,27310.57,11474.94,8615.45
1390049.2957,1902.72,11584.43,33212.24,32050.9,24242.88,27312.62,11423.97,8628.32
1390049.2977,2254.53,11586.67,33209.38,32043.22,24232.72,27334.84,11456.97,8619.07
1390049.2997,2717.5,11645.18,33214.95,32046.46,24225.91,27374.7,11554.48,8613.68
1390049.3017,3117.04,11731.67,33213.09,32046.61,24216.75,27410.27,11674.26,8606.29
1390049.3037,3207.92,11782.12,33190.78,32019.81,24195.15,27411.51,11747.84,8583.26
1390049.3057,2938.18,11792.57,33175.0,32007.75,24184.18,27380.47,11737.87,8563.09
1390049.3077,2363.87,11730.53,33163.84,32009.65,24188.95,27335.41,11633.06,8561.61
1390049.3097,1897.62,11637.98,33173.42,32027.3,24211.7,27309.13,11503.51,8584.98
1390049.3117,1828.0,11584.24,33190.87,32044.22,24229.72,27308.28,11429.84,8608.72
1390049.3137,2120.54,11579.32,33200.89,32043.65,24233.58,27331.26,11439.13,8618.17
1390049.3157,2561.04,11621.86,33207.42,32037.55,24225.29,27365.16,11521.29,8609.49
1390049.3177,3003.07,11700.73,33207.23,32033.11,24218.28,27396.73,11637.74,8604.24
1390049.3197,3215.69,11763.62,33189.21,32010.03,24200.49,27408.6,11726.57,8587.03
1390049.3217,3070.69,11787.7,33169.51,31998.3,24184.61,27392.44,11746.6,8575.3
1390049.3237,2568.53,11751.84,33156.07,31994.35,24183.56,27352.81,11673.5,8570.24
1390049.3257,2005.77,11650.99,33151.58,31997.35,24197.92,27309.71,11534.26,8576.68
1390049.3277,1795.2,11584.66,33166.79,32021.34,24217.47,27296.4,11435.84,8592.32
1390049.3297,1984.07,11569.93,33182.43,32036.98,24227.1,27313.14,11416.91,8600.71
1390049.3317,2401.11,11603.69,33193.02,32034.45,24224.47,27348.71,11482.62,8596.71
1390049.3337,2858.78,11670.11,33195.88,32033.64,24212.08,27386.72,11591.34,8587.22
1390049.3357,3177.64,11748.6,33185.87,32023.39,24192.48,27410.75,11699.96,8571.1
1390049.3377,3160.48,11794.0,33175.52,32014.28,24185.61,27415.28,11757.23,8567.43
1390049.3397,2786.59,11797.62,33170.99,32007.46,24193.15,27387.57,11727.81,8575.3
1390049.3417,2180.24,11707.02,33164.84,32001.4,24206.31,27339.41,11601.02,8584.41
1390049.3437,1838.4,11621.1,33170.13,32016.9,24220.66,27306.99,11479.19,8602.33
1390049.3457,1888.23,11583.71,33184.58,32034.69,24230.2,27308.85,11422.59,8613.83
1390049.3477,2265.98,11601.83,33193.97,32040.79,24227.43,27339.89,11468.36,8607.77
1390049.3497,2715.64,11655.28,33202.13,32042.17,24223.76,27379.09,11563.02,8601.33
1390049.3517,3127.77,11742.97,33199.98,32035.45,24208.74,27409.37,11682.46,8589.55
1390049.3537,3211.21,11799.96,33190.92,32026.68,24199.06,27423.19,11762.19,8582.26
1390049.3557,2973.22,11828.81,33181.48,32024.58,24193.0,27402.59,11759.66,8577.54
1390049.3577,2378.51,11763.0,33169.8,32018.0,24197.72,27354.91,11650.37,8582.55
1390049.3597,1925.13,11668.4,33177.19,32028.92,24219.61,27322.68,11523.3,8603.0
1390049.3617,1832.06,11607.79,33190.87,32041.27,24234.39,27317.48,11445.14,8616.78
1390049.3637,2148.25,11610.8,33200.36,32048.75,24233.73,27338.36,11454.49,8618.5
1390049.3657,2557.95,11639.41,33201.03,32041.03,24220.56,27365.12,11522.87,8609.2
1390049.3677,3012.85,11709.21,33195.88,32028.15,24200.49,27391.53,11633.3,8587.98
1390049.3697,3200.82,11767.34,33183.77,32010.85,24186.9,27407.36,11726.09,8572.15
1390049.3717,3096.77,11809.02,33176.95,32016.33,24181.51,27403.98,11764.96,8563.47
1390049.3737,2578.83,11778.31,33163.98,32021.72,24182.37,27365.26,11689.66,8551.88
1390049.3757,2048.59,11685.37,33161.12,32026.91,24192.67,27331.5,11554.91,8558.8
1390049.3777,1805.97,11609.56,33174.57,32040.03,24210.17,27324.97,11453.53,8586.79
1390049.3797,2012.25,11592.25,33188.25,32046.04,24225.67,27332.83,11436.08,8608.34
1390049.3817,2390.0,11609.84,33190.92,32035.88,24225.76,27351.1,11487.1,8609.25
1390049.3837,2864.55,11672.93,33191.92,32032.16,24218.61,27367.26,11586.95,8600.43
1390049.3857,3164.67,11751.18,33190.16,32029.63,24208.02,27394.49,11698.1,8583.02
1390049.3877,3178.64,11809.02,33188.25,32036.07,24196.82,27406.74,11763.05,8573.68
1390049.3897,2783.58,11811.07,33181.1,32038.98,24199.63,27374.8,11717.56,8587.79
1390049.3917,2209.71,11732.58,33178.67,32034.73,24218.42,27336.55,11600.88,8612.35
1390049.3937,1833.92,11636.64,33181.91,32031.21,24235.16,27309.61,11479.71,8627.75
1390049.3957,1906.78,11599.45,33193.31,32042.46,24241.4,27314.95,11433.56,8635.95
1390049.3977,2260.92,11612.61,33197.03,32039.84,24233.15,27341.23,11467.51,8626.94
1390049.3997,2716.92,11660.39,33193.69,32030.06,24220.14,27369.22,11549.86,8608.2
1390049.4017,3095.44,11731.82,33178.81,32014.9,24200.82,27391.29,11663.87,8586.46
1390049.4037,3199.39,11785.94,33173.47,32009.89,24190.95,27407.27,11749.98,8575.11
1390049.4057,2943.8,11804.77,33158.07,32007.13,24177.94,27382.9,11744.64,8562.28
1390049.4077,2371.03,11744.93,33160.64,32017.28,24193.34,27343.99,11644.65,8574.87
1390049.4097,1907.92,11655.62,33172.18,32033.11,24220.71,27316.05,11518.72,8600.28
1390049.4117,1820.47,11588.53,33180.0,32039.17,24236.35,27311.04,11437.18,8617.07
1390049.4137,2125.45,11594.34,33196.26,32043.94,24242.74,27340.46,11454.73,8623.03
1390049.4157,2558.95,11636.88,33208.76,32048.99,24240.78,27374.27,11532.5,8624.7
1390049.4177,3020.91,11720.42,33207.37,32044.56,24229.2,27397.83,11646.27,8614.97
1390049.4197,3212.31,11777.55,33192.54,32027.63,24207.5,27407.6,11739.21,8592.75
1390049.4217,3083.42,11807.82,33170.32,32014.9,24186.8,27391.2,11765.62,8568.96
1390049.4237,2556.32,11764.43,33150.72,32002.12,24180.18,27343.94,11679.13,8562.14
1390049.4257,2020.07,11674.6,33149.1,32004.88,24191.48,27301.41,11540.56,8575.77
1390049.4277,1779.37,11599.02,33162.98,32022.48,24212.17,27286.44,11439.23,8600.67
1390049.4297,1990.08,11584.24,33172.61,32033.78,24217.8,27298.64,11422.06,8608.44
1390049.4317,2378.42,11607.22,33182.29,32040.08,24216.75,27333.98,11483.77,8610.2
1390049.4337,2863.65,11679.36,33188.73,32040.89,24207.93,27371.17,11595.3,8598.61
1390049.4357,3149.56,11749.56,33183.05,32030.16,24195.82,27391.58,11694.34,8581.45
1390049.4377,3167.2,11799.29,33171.61,32021.57,24185.52,27396.35,11759.57,8572.05
1390049.4397,2759.65,11783.74,33155.54,32000.5,24180.94,27360.82,11713.32,8566.62
1390049.4417,2184.15,11703.64,33152.44,31998.21,24195.39,27315.52,11585.0,8572.15
1390049.4437,1811.55,11617.9,33169.89,32028.82,24225.71,27299.07,11471.23,8598.47
1390049.4457,1906.73,11594.2,33192.11,32057.86,24243.83,27309.23,11424.45,8617.55
1390049.4477,2245.28,11599.69,33199.22,32055.91,24240.69,27335.74,11458.35,8617.21
1390049.4497,2721.17,11655.38,33205.8,32051.81,24229.96,27371.6,11554.29,8612.3
1390049.4517,3099.35,11733.44,33202.6,32044.41,24213.27,27403.07,11668.02,8598.61
1390049.4537,3222.42,11790.56,33188.49,32024.91,24194.2,27411.03,11751.56,8575.68
1390049.4557,2935.17,11801.77,33173.95,32009.65,24182.27,27381.8,11743.21,8571.67
1390049.4577,2376.13,11741.83,33160.31,32003.84,24186.33,27330.07,11633.35,8582.55
1390049.4597,1884.89,11636.21,33154.16,32003.6,24207.21,27296.21,11497.69,8606.48
1390049.4617,1823.23,11586.14,33171.85,32028.96,24230.48,27295.31,11421.73,8621.22
1390049.4637,2108.15,11590.2,33188.63,32038.93,24241.35,27324.35,11438.51,8630.8
1390049.4657,2565.1,11639.21,33199.46,32043.6,24240.16,27361.3,11522.44,8629.99
1390049.4677,3004.98,11714.22,33200.46,32035.88,24226.43,27391.44,11634.16,8613.64
1390049.4697,3218.89,11777.12,33191.97,32020.05,24209.03,27409.41,11727.05,8593.23
1390049.4717,3076.84,11802.67,33178.76,32010.7,24194.86,27394.44,11748.84,8576.78
1390049.4737,2584.51,11773.25,33162.22,32007.84,24190.86,27353.58,11671.97,8575.2
1390049.4757,2017.88,11682.46,33164.17,32017.62,24209.69,27313.57,11535.31,8599.52
1390049.4777,1795.91,11608.41,33178.33,32035.69,24230.58,27296.78,11430.17,8620.69
1390049.4797,1984.6,11586.95,33190.06,32043.17,24236.35,27314.52,11417.2,8623.79
1390049.4817,2398.82,11612.08,33199.5,32045.56,24228.62,27348.95,11478.28,8613.25
1390049.4837,2852.39,11678.51,33200.7,32043.03,24212.03,27382.81,11577.89,8596.47
1390049.4857,3174.35,11755.18,33193.83,32023.34,24196.1,27412.23,11689.0,8581.45
1390049.4877,3163.86,11802.91,33175.81,32003.69,24184.37,27414.52,11753.61,8574.39
1390049.4897,2766.61,11786.56,33149.87,31984.38,24174.74,27364.83,11711.84,8562.09
1390049.4917,2172.61,11705.45,33148.2,31987.58,24191.24,27323.68,11595.92,8578.73
1390049.4937,1821.66,11622.81,33162.07,32015.52,24220.9,27301.7,11470.94,8604.58
1390049.4957,1879.5,11586.43,33174.38,32032.16,24231.72,27305.27,11414.72,8615.3
1390049.4977,2240.32,11598.92,33183.15,32035.31,24233.01,27337.03,11457.21,8619.6
1390049.4997,2711.63,11661.01,33197.36,32038.79,24235.06,27384.33,11565.35,8617.88
1390049.5017,3104.83,11731.34,33190.45,32025.34,24217.99,27406.89,11670.16,8597.9
1390049.5037,3192.0,11775.78,33167.65,32001.69,24191.53,27398.4,11740.78,8571.1
1390049.5057,2932.45,11787.61,33157.88,32002.98,24181.56,27367.88,11728.43,8564.38
1390049.5077,2372.93,11739.16,33157.97,32010.08,24194.58,27329.73,11631.73,8579.3
1390049.5097,1899.67,11651.23,33172.85,32031.59,24224.71,27310.04,11505.22,8608.15
1390049.5117,1818.9,11593.72,33187.11,32048.61,24241.5,27307.42,11420.78,8622.84
1390049.5137,2099.9,11583.14,33192.4,32045.46,24234.2,27326.01,11424.97,8620.6
1390049.5157,2539.16,11619.95,33189.83,32036.69,24216.23,27354.43,11501.17,8608.01
1390049.5177,2984.86,11696.48,33193.64,32033.21,24205.64,27382.42,11617.57,8598.57
1390049.5197,3210.4,11769.92,33182.58,32014.76,24188.43,27404.31,11720.85,8579.64
1390049.5217,3078.65,11804.53,33174.09,32003.36,24184.61,27403.83,11754.66,8573.44
1390049.5237,2590.04,11773.21,33161.79,32002.17,24190.62,27361.11,11678.65,8581.11
1390049.5257,2020.88,11673.64,33162.5,32010.8,24212.41,27313.52,11542.61,8595.85
1390049.5277,1803.54,11603.31,33175.62,32026.39,24231.63,27291.11,11436.18,8608.63
1390049.5297,1991.61,11586.38,33194.26,32043.13,24246.7,27312.57,11418.3,8612.2
1390049.5317,2406.12,11618.33,33201.17,32053.14,24243.41,27343.23,11480.14,8606.39
1390049.5337,2862.84,11682.51,33197.98,32052.14,24229.0,27375.32,11581.09,8601.43
1390049.5357,3185.75,11760.47,33185.87,32038.12,24207.26,27396.87,11686.47,8589.6
1390049.5377,3159.0,11795.0,33166.36,32014.04,24193.0,27389.48,11734.87,8583.4
1390049.5397,2794.79,11798.67,33158.59,32001.98,24193.96,27357.63,11697.91,8586.98
1390049.5417,2187.3,11715.46,33157.97,32000.64,24205.31,27317.05,11573.6,8597.33
1390049.5437,1846.93,11633.83,33171.09,32023.62,24222.23,27303.99,11459.97,8616.73
1390049.5457,1884.6,11592.06,33187.3,32041.32,24231.63,27304.84,11407.42,8628.61
1390049.5477,2262.07,11608.65,33202.22,32042.75,24233.2,27330.74,11448.19,8631.99
1390049.5497,2702.19,11653.47,33203.8,32032.88,24222.33,27360.59,11537.6,8619.6
1390049.5517,3114.61,11737.97,33200.89,32032.68,24207.17,27387.77,11658.53,8603.91
1390049.5537,3209.5,11796.91,33202.37,32029.2,24201.35,27405.69,11745.65,8598.19
1390049.5557,2981.38,11823.32,33193.02,32028.2,24198.58,27388.24,11748.74,8597.57
1390049.5577,2387.43,11759.0,33176.81,32023.96,24202.59,27340.8,11635.97,8600.67
1390049.5597,1924.66,11663.58,33178.67,32035.83,24220.61,27309.23,11503.94,8613.97
1390049.5617,1817.13,11594.49,33187.87,32050.14,24233.68,27299.31,11415.67,8619.6
1390049.5637,2125.6,11592.44,33195.12,32058.15,24237.16,27316.81,11427.26,8616.73
1390049.5657,2536.44,11628.77,33197.31,32055.81,24231.91,27350.14,11507.42,8610.54
1390049.5677,3000.26,11707.69,33195.17,32055.43,24217.8,27386.0,11622.33,8599.85
1390049.5697,3189.37,11765.34,33175.57,32027.77,24197.34,27400.21,11715.8,8586.69
1390049.5717,3079.37,11796.09,33158.93,32005.7,24180.8,27386.14,11746.69,8574.44
1390049.5737,2564.34,11765.39,33153.16,32002.12,24187.71,27349.05,11673.55,8582.97
1390049.5757,2026.08,11669.88,33153.11,32004.74,24203.68,27307.56,11536.79,8593.46
1390049.5777,1773.02,11589.67,33161.69,32019.95,24216.23,27286.49,11426.4,8605.67
1390049.5797,1982.07,11582.9,33181.58,32047.75,24229.48,27307.56,11416.01,8620.41
1390049.5817,2379.56,11616.99,33197.98,32057.72,24235.59,27347.28,11479.24,8614.78
1390049.5837,2857.78,11681.56,33201.6,32052.47,24221.42,27380.52,11584.76,8599.66
1390049.5857,3157.28,11754.47,33186.11,32026.91,24199.77,27400.83,11691.52,8587.03
1390049.5877,3165.63,11801.29,33178.48,32011.13,24192.34,27401.59,11748.46,8589.03
1390049.5897,2774.43,11786.65,33163.12,31996.11,24188.95,27360.49,11704.73,8586.46
1390049.5917,2196.88,11713.08,33164.17,31999.64,24205.64,27328.21,11592.2,8603.48
1390049.5937,1831.72,11636.54,33186.34,32024.63,24237.21,27314.24,11483.48,8630.18
1390049.5957,1905.11,11604.45,33208.09,32053.62,24257.33,27323.2,11433.32,8647.44
1390049.5977,2264.45,11623.24,33215.86,32062.92,24253.42,27358.25,11475.23,8643.63
1390049.5997,2727.41,11673.5,33216.53,32060.67,24238.59,27388.91,11567.88,8630.32
1390049.6017,3107.45,11742.69,33200.7,32040.41,24215.18,27405.46,11671.45,8604.34
1390049.6037,3201.29,11778.17,33178.52,32013.09,24193.67,27404.69,11739.16,8581.69
1390049.6057,2949.67,11792.09,33164.27,32007.56,24189.52,27372.17,11729.29,8579.64
1390049.6077,2367.45,11731.53,33156.69,32009.51,24197.96,27323.3,11621.33,8584.41
1390049.6097,1897.29,11638.98,33159.78,32015.61,24219.42,27289.68,11488.92,8585.79
1390049.6117,1810.74,11583.62,33180.43,32041.93,24243.41,27289.78,11411.57,8608.63
1390049.6137,2105.14,11584.57,33186.34,32044.22,24237.3,27308.09,11419.35,8618.17
1390049.6157,2523.76,11616.76,33190.16,32034.35,24228.77,27339.13,11488.49,8619.21
1390049.6177,2988.24,11700.49,33191.64,32030.06,24216.46,27377.89,11612.13,8608.68
1390049.6197,3191.66,11759.43,33178.86,32013.18,24199.92,27395.63,11708.45,8594.51
1390049.6217,3085.04,11796.71,33169.56,32003.07,24187.76,27388.53,11742.4,8587.17
1390049.6237,2576.3,11763.96,33166.6,32002.41,24193.81,27348.33,11666.49,8595.28
1390049.6257,2042.39,11677.89,33172.04,32014.99,24214.22,27311.61,11540.18,8614.59
1390049.6277,1789.52,11601.26,33182.77,32034.73,24235.78,27299.79,11442.28,8631.75
1390049.6297,1994.56,11593.06,33196.83,32055.52,24248.7,27316.91,11426.55,8636.38
1390049.6317,2373.7,11605.07,33197.93,32053.19,24240.31,27335.5,11470.7,8625.27
1390049.6337,2860.45,11674.79,33198.27,32047.66,24223.19,27370.55,11576.75,8613.4
1390049.6357,3154.9,11750.13,33194.36,32039.79,24206.69,27398.97,11687.71,8599.09
1390049.6377,3168.49,11796.14,33177.28,32025.25,24189.05,27393.87,11745.22,8581.54
1390049.6397,2764.99,11789.99,33165.65,32017.33,24191.81,27356.29,11705.07,8586.12
1390049.6417,2197.17,11722.28,33168.56,32024.63,24211.31,27314.09,11585.9,8603.86
1390049.6437,1810.22,11628.49,33178.33,32038.79,24236.97,27292.02,11464.07,8624.84
1390049.6457,1888.13,11592.96,33191.4,32054.95,24250.22,27292.16,11412.15,8636.76
1390049.6477,2222.25,11596.97,33192.35,32047.94,24245.88,27313.76,11443.81,8628.85
1390049.6497,2694.99,11650.9,33192.35,32040.5,24230.91,27349.38,11540.61,8614.49
1390049.6517,3079.8,11723.0,33186.39,32029.06,24212.94,27381.61,11652.23,8598.52
1390049.6537,3211.55,11780.55,33169.94,32013.85,24192.0,27388.48,11733.1,8583.02
1390049.6557,2940.46,11798.1,33160.12,32010.89,24183.61,27365.16,11731.39,8571.34
1390049.6577,2389.24,11745.6,33161.88,32012.04,24196.34,27329.45,11633.16,8582.88
1390049.6597,1902.2,11648.99,33172.52,32019.48,24221.85,27316.72,11508.9,8606.15
1390049.6617,1829.05,11598.11,33184.72,32034.31,24235.78,27316.62,11429.07,8622.36
1390049.6637,2100.28,11597.59,33196.98,32040.84,24243.02,27336.41,11439.99,8632.95
1390049.6657,2545.98,11634.26,33203.89,32043.22,24237.21,27359.63,11519.48,8625.75
1390049.6677,2983.38,11705.73,33198.98,32038.45,24223.14,27385.29,11628.68,8611.87
1390049.6697,3212.88,11776.21,33189.06,32030.63,24211.36,27407.08,11730.0,8601.67
1390049.6717,3079.32,11806.16,33175.38,32022.43,24199.77,27386.57,11756.76,8588.36
1390049.6737,2586.13,11769.77,33156.45,32009.03,24189.86,27340.8,11679.94,8578.35
1390049.6757,2021.36,11676.31,33159.21,32014.47,24205.59,27308.71,11548.28,8601.09
1390049.6777,1789.81,11596.87,33174.52,32029.54,24222.57,27291.73,11440.09,8617.07
1390049.6797,1973.87,11580.37,33191.11,32042.94,24233.87,27305.56,11419.92,8624.84
1390049.6817,2392.96,11609.6,33201.56,32050.71,24235.87,27340.94,11487.06,8622.46
1390049.6837,2854.16,11674.26,33200.74,32047.04,24223.95,27376.51,11591.2,8603.91
1390049.6857,3167.49,11740.69,33181.29,32025.72,24201.97,27395.44,11687.57,8572.01
1390049.6877,3163.96,11786.65,33167.8,32014.23,24189.76,27398.45,11749.65,8562.14
1390049.6897,2786.26,11787.03,33158.26,32012.32,24192.62,27365.83,11722.38,8566.19
1390049.6917,2187.59,11702.92,33148.2,32006.7,24202.02,27313.04,11593.15,8578.3
1390049.6937,1819.23,11616.37,33165.98,32018.62,24228.86,27294.93,11469.7,8611.35
1390049.6957,1881.65,11585.48,33185.01,32037.83,24246.36,27300.41,11417.63,8631.18
1390049.6977,2238.89,11592.15,33195.93,32044.46,24245.74,27329.35,11452.72,8632.23
1390049.6997,2701.33,11642.65,33193.31,32038.22,24227.1,27360.44,11541.99,8621.5
1390049.7017,3099.97,11717.89,33184.63,32027.68,24206.93,27388.48,11652.28,8604.81
1390049.7037,3211.64,11778.88,33171.94,32009.89,24192.48,27400.69,11739.11,8589.89
1390049.7057,2958.97,11801.05,33162.74,32006.79,24190.86,27387.72,11742.97,8584.45
1390049.7077,2395.63,11746.65,33158.45,32009.32,24200.25,27345.85,11639.64,8589.94
1390049.7097,1908.68,11652.66,33169.08,32023.58,24225.76,27302.51,11499.74,8613.21
1390049.7117,1822.66,11601.35,33187.92,32045.51,24246.46,27295.16,11414.72,8636.38
1390049.7137,2103.57,11593.25,33201.84,32052.95,24251.65,27320.58,11426.12,8639.48
1390049.7157,2547.93,11632.63,33199.55,32050.8,24240.59,27344.42,11498.88,8624.6
1390049.7177,2987.58,11704.64,33193.88,32040.5,24221.38,27374.7,11608.32,8608.63
1390049.7197,3219.18,11775.64,33179.62,32022.43,24201.35,27393.25,11711.88,8594.47
1390049.7217,3100.92,11823.13,33180.53,32027.53,24202.16,27393.3,11753.47,8596.71
1390049.7237,2626.37,11807.35,33182.2,32036.21,24212.79,27363.21,11690.9,8599.04
1390049.7257,2053.31,11705.78,33183.77,32047.23,24227.19,27319.29,11554.39,8610.44
1390049.7277,1813.32,11621.95,33191.92,32064.97,24238.4,27296.16,11445.33,8620.79
1390049.7297,1989.94,11601.5,33212.47,32078.56,24252.8,27312.33,11427.07,8634.28
1390049.7317,2409.65,11634.11,33227.78,32068.69,24250.8,27346.33,11491.4,8636.05
1390049.7337,2860.74,11686.28,33223.2,32049.09,24234.63,27375.22,11589.05,8626.94
1390049.7357,3190.09,11758.61,33203.65,32032.21,24210.65,27392.77,11692.24,8606.91
1390049.7377,3176.83,11798.57,33184.68,32016.38,24198.01,27386.33,11744.88,8597.8
1390049.7397,2813.53,11801.43,33168.89,32008.75,24192.19,27352.72,11709.5,8594.13
1390049.7417,2203.61,11712.36,33157.26,32002.88,24199.11,27304.56,11583.14,8601.48
1390049.7437,1842.17,11623.96,33166.7,32017.0,24221.85,27276.76,11459.97,8621.36
1390049.7457,1870.58,11579.37,33180.53,32030.01,24235.78,27279.33,11400.03,8632.33
1390049.7477,2253.34,11606.98,33197.79,32045.94,24243.17,27316.67,11448.67,8638.43
1390049.7497,2699.71,11660.01,33201.6,32044.32,24235.82,27357.53,11545.33,8628.8
1390049.7517,3115.94,11739.49,33198.55,32038.36,24223.14,27383.0,11655.38,8613.49
1390049.7537,3201.34,11782.08,33180.38,32018.62,24209.12,27387.43,11731.91,8596.85
1390049.7557,2977.85,11808.92,33170.04,32018.62,24202.25,27370.89,11740.97,8589.79
1390049.7577,2387.0,11749.94,33162.41,32020.05,24205.83,27327.02,11634.4,8594.18
1390049.7597,1913.02,11650.28,33168.46,32029.58,24222.52,27293.59,11499.6,8610.87
1390049.7617,1800.44,11587.91,33187.58,32055.62,24242.74,27286.96,11414.53,8634.85
1390049.7637,2102.66,11585.62,33194.83,32059.15,24242.12,27303.7,11420.63,8634.85
1390049.7657,2522.42,11621.52,33198.5,32051.47,24231.72,27330.69,11496.02,8618.78
1390049.7677,2983.09,11695.53,33193.69,32038.69,24212.27,27361.97,11605.07,8585.41
1390049.7697,3186.61,11765.29,33187.58,32028.58,24205.83,27383.76,11703.83,8577.92
1390049.7717,3097.01,11810.11,33180.77,32028.82,24206.31,27380.52,11746.93,8587.55
1390049.7737,2591.42,11783.65,33173.14,32019.14,24212.94,27347.23,11681.75,8601.81
1390049.7757,2045.54,11688.28,33170.04,32023.96,24225.09,27305.7,11551.67,8613.64
1390049.7777,1782.32,11600.35,33174.9,32037.55,24236.63,27278.62,11437.56,8626.27
1390049.7797,1974.73,11578.75,33182.86,32050.37,24237.35,27285.77,11411.81,8627.8
1390049.7817,2369.5,11611.46,33191.78,32057.81,24235.73,27326.25,11474.52,8624.36
1390049.7837,2858.64,11683.04,33199.93,32054.67,24226.72,27369.12,11581.37,8618.31
1390049.7857,3170.63,11758.33,33189.11,32033.97,24206.55,27394.01,11688.9,8604.81
1390049.7877,3176.64,11800.58,33177.28,32017.14,24193.29,27395.87,11750.03,8596.95
1390049.7897,2790.17,11796.67,33163.27,32009.8,24191.38,27367.07,11712.03,8592.8
1390049.7917,2209.95,11719.32,33166.32,32018.95,24212.79,27333.22,11595.54,8611.63
1390049.7937,1836.16,11632.11,33178.33,32034.45,24235.2,27306.56,11474.52,8633.81
1390049.7957,1886.99,11592.58,33202.08,32053.95,24251.85,27298.6,11418.34,8649.64
1390049.7977,2246.9,11607.84,33211.62,32054.33,24251.37,27329.97,11453.58,8645.11
1390049.7997,2702.19,11653.9,33209.61,32044.8,24235.92,27356.77,11538.55,8626.61
1390049.8017,3092.19,11722.61,33193.26,32028.01,24213.03,27376.04,11645.13,8602.1
1390049.8037,3195.91,11770.25,33172.18,32012.94,24192.57,27383.24,11725.52,8584.36
1390049.8057,2955.25,11792.76,33154.73,32006.08,24176.74,27361.25,11727.05,8572.82
1390049.8077,2376.99,11729.72,33146.39,32001.21,24186.47,27315.19,11617.47,8582.88
1390049.8097,1895.81,11636.78,33151.77,32011.66,24207.4,27276.04,11483.15,8602.19
1390049.8117,1791.48,11582.85,33168.42,32036.31,24226.86,27276.66,11406.76,8620.45
1390049.8137,2107.29,11603.31,33193.74,32059.43,24240.69,27313.38,11436.85,8631.37
1390049.8157,2529.81,11636.07,33194.12,32052.0,24233.68,27347.52,11508.7,8625.7
1390049.8177,2995.54,11713.12,33190.68,32043.03,24216.37,27375.99,11615.71,8614.02
1390049.8197,3202.58,11778.17,33181.29,32033.73,24202.78,27398.07,11718.23,8603.24
1390049.8217,3116.89,11828.33,33181.15,32036.12,24199.92,27396.44,11760.67,8599.57
1390049.8237,2609.92,11797.95,33175.95,32034.54,24205.59,27357.72,11691.57,8599.66
1390049.8257,2073.1,11711.93,33180.81,32044.61,24222.76,27317.81,11562.87,8612.78
1390049.8277,1811.65,11627.25,33195.93,32061.49,24241.97,27302.32,11453.2,8630.32
1390049.8297,2004.43,11607.65,33209.85,32071.5,24257.81,27311.57,11429.6,8636.05
1390049.8317,2385.81,11623.43,33216.53,32069.88,24260.05,27335.12,11477.04,8633.28
1390049.8337,2868.46,11689.0,33215.67,32053.76,24243.5,27362.97,11574.7,8619.64
1390049.8357,3169.35,11764.05,33210.23,32037.93,24225.62,27395.54,11684.9,8610.06
1390049.8377,3191.04,11816.07,33196.26,32028.63,24210.6,27397.64,11746.84,8597.85
1390049.8397,2790.83,11805.25,33179.62,32018.0,24205.12,27360.25,11704.88,8591.84
1390049.8417,2219.58,11725.09,33174.66,32018.57,24214.18,27306.7,11579.23,8601.09
1390049.8437,1815.51,11624.81,33181.0,32032.06,24228.86,27276.33,11447.14,8618.12
1390049.8457,1882.22,11590.1,33190.16,32046.51,24236.49,27278.14,11395.36,8628.04
1390049.8477,2217.1,11594.3,33194.69,32039.84,24232.53,27303.51,11428.5,8621.26
1390049.8497,2686.55,11646.13,33193.5,32029.11,24216.65,27334.69,11517.1,8604.43
1390049.8517,3061.2,11714.41,33180.72,32011.7,24195.24,27358.87,11623.72,8580.97
1390049.8537,3191.47,11771.16,33169.89,31999.5,24179.03,27371.36,11708.4,8564.38
1390049.8557,2937.94,11794.14,33161.83,31996.44,24175.36,27351.24,11712.74,8561.66
1390049.8577,2391.43,11744.6,33159.59,31998.69,24186.95,27317.81,11613.99,8570.67
1390049.8597,1890.85,11641.65,33161.79,32001.93,24208.07,27287.58,11477.85,8586.79
1390049.8617,1807.31,11584.86,33180.29,32021.91,24231.53,27283.81,11396.41,8607.34
1390049.8637,2073.24,11578.47,33191.49,32023.29,24230.48,27302.84,11401.08,8605.05
1390049.8657,2520.7,11622.24,33198.17,32021.29,24219.71,27330.59,11476.23,8594.13
1390049.8677,2959.63,11699.73,33195.4,32008.89,24199.49,27358.49,11589.77,8573.44
1390049.8697,3184.51,11756.47,33178.0,31986.43,24178.08,27365.97,11679.84,8548.83
1390049.8717,3062.39,11788.56,33169.46,31980.42,24173.07,27359.3,11719.9,8548.26
1390049.8737,2584.65,11755.75,33159.45,31977.94,24179.94,27323.39,11652.33,8553.51
1390049.8757,2023.65,11664.68,33161.79,31984.48,24200.44,27284.48,11518.19,8570.96
1390049.8777,1787.19,11596.01,33183.53,32013.66,24228.72,27278.81,11417.49,8595.61
1390049.8797,1962.81,11576.61,33196.88,32024.1,24236.06,27295.07,11393.12,8602.19
1390049.8817,2365.73,11590.77,33193.5,32018.0,24223.62,27320.77,11440.56,8590.94
1390049.8837,2830.7,11657.19,33189.3,32011.27,24208.26,27360.97,11544.04,8579.92
1390049.8857,3143.36,11724.33,33167.75,31989.53,24187.81,27383.24,11648.61,8559.61
1390049.8877,3144.36,11767.44,33148.2,31967.41,24168.59,27370.03,11711.31,8542.54
1390049.8897,2770.47,11765.05,33138.71,31963.78,24164.06,27336.12,11681.65,8536.53
1390049.8917,2166.61,11681.99,33130.6,31957.44,24173.74,27282.38,11554.86,8541.16
1390049.8937,1781.85,11585.05,33138.66,31964.35,24196.2,27245.1,11420.39,8559.85
1390049.8957,1835.87,11552.05,33156.07,31981.95,24209.17,27255.82,11369.13,8573.49
1390049.8977,2198.17,11570.6,33172.52,31992.49,24212.79,27292.21,11409.95,8575.49
1390049.8997,2661.66,11626.29,33179.48,31988.58,24206.02,27327.73,11508.7,8565.43
1390049.9017,3056.91,11698.15,33176.62,31976.66,24192.34,27351.1,11616.52,8551.26
1390049.9037,3178.02,11751.08,33163.03,31962.3,24175.93,27360.25,11696.82,8535.77
1390049.9057,2927.21,11766.39,33151.2,31954.96,24168.45,27335.74,11695.29,8527.18
1390049.9077,2378.13,11726.09,33154.83,31964.83,24188.19,27302.65,11604.31,8542.3
1390049.9097,1889.9,11628.72,33163.12,31983.47,24212.27,27273.47,11474.8,8564.28
1390049.9117,1803.02,11575.03,33179.53,32009.65,24230.91,27264.93,11393.98,8577.97
1390049.9137,2066.33,11557.77,33182.01,32007.75,24226.76,27278.86,11389.54,8575.01
1390049.9157,2507.97,11593.3,33183.91,31987.43,24218.23,27313.09,11461.21,8566.0
1390049.9177,2944.76,11660.39,33181.15,31969.69,24206.93,27343.42,11568.36,8549.98
1390049.9197,3180.74,11728.34,33165.89,31951.72,24183.32,27354.86,11665.15,8518.12
1390049.9217,3048.71,11751.89,33145.57,31938.22,24162.49,27337.03,11693.29,8497.53
1390049.9237,2570.68,11731.1,33140.76,31937.17,24170.93,27304.18,11629.54,8512.78
1390049.9257,1999.28,11640.36,33146.91,31942.04,24196.44,27268.7,11496.21,8543.16
1390049.9277,1765.2,11566.93,33164.03,31961.83,24223.0,27255.44,11392.93,8564.95
1390049.9297,1934.15,11542.8,33177.33,31975.42,24229.67,27274.56,11370.47,8555.08
1390049.9317,2347.18,11570.26,33181.1,31977.94,24220.66,27302.55,11428.31,8541.3
1390049.9337,2794.7,11628.44,33183.05,31982.04,24209.03,27329.02,11528.78,8540.39
1390049.9357,3130.82,11705.73,33174.76,31971.36,24188.24,27350.38,11637.64,8531.95
1390049.9377,3131.06,11753.27,33167.8,31959.82,24175.36,27360.11,11703.16,8528.9
1390049.9397,2766.37,11753.04,33150.53,31944.8,24166.49,27328.78,11672.07,8522.51
1390049.9417,2153.25,11664.44,33143.95,31937.98,24179.03,27279.76,11543.42,8530.86
1390049.9437,1793.67,11578.61,33156.92,31948.62,24203.97,27256.68,11421.25,8554.98
1390049.9457,1828.0,11537.84,33174.66,31959.49,24222.76,27263.22,11372.42,8569.58
1390049.9477,2200.99,11554.43,33185.3,31965.35,24219.42,27294.93,11414.1,8562.95
1390049.9497,2640.68,11602.59,33192.64,31959.82,24207.17,27329.73,11499.74,8552.55
1390049.9517,3063.68,11685.85,33192.07,31959.68,24190.33,27361.35,11614.9,8535.67
1390049.9537,3153.66,11734.11,33173.42,31941.85,24172.6,27368.45,11694.67,8520.7
1390049.9557,2931.31,11755.85,33158.02,31934.27,24162.15,27339.89,11695.96,8509.35
1390049.9577,2351.19,11698.77,33152.35,31939.99,24170.88,27294.93,11593.87,8509.16
1390049.9597,1888.18,11611.99,33162.12,31971.79,24195.86,27267.89,11467.22,8529.71
1390049.9617,1768.64,11552.67,33177.81,32000.26,24216.7,27262.26,11380.96,8550.12
1390049.9637,2063.66,11545.66,33183.1,31992.82,24213.7,27275.95,11382.63,8545.78
1390049.9657,2479.27,11578.66,33180.86,31976.85,24199.35,27306.13,11455.58,8534.15
1390049.9677,2953.24,11662.1,33183.96,31969.36,24189.28,27343.32,11576.32,8530.67
1390049.9697,3167.44,11734.34,33175.19,31949.81,24175.41,27364.5,11680.13,8526.42
1390049.9717,3078.94,11770.58,33157.54,31938.75,24157.48,27353.77,11713.22,8513.45
1390049.9737,2577.64,11745.6,33148.34,31934.98,24162.96,27320.77,11647.61,8518.41
1390049.9757,2025.03,11652.9,33147.58,31936.74,24176.65,27280.14,11514.24,8528.42
1390049.9777,1764.77,11575.27,33159.5,31952.05,24195.1,27266.51,11407.47,8546.97
1390049.9797,1951.69,11555.67,33175.14,31968.45,24205.88,27279.62,11382.15,8553.41
1390049.9817,2334.88,11575.7,33183.96,31963.59,24204.07,27301.36,11431.89,8538.06
1390049.9837,2811.0,11633.92,33184.68,31955.68,24188.9,27328.49,11525.63,8519.13
1390049.9857,3135.73,11715.84,33185.1,31954.1,24176.46,27360.63,11641.17,8513.93
1390049.9877,3157.76,11766.48,33177.67,31952.86,24169.21,27371.79,11712.12,8515.5
1390049.9897,2785.68,11770.87,33169.46,31956.87,24169.97,27344.18,11680.22,8519.51
1390049.9917,2195.31,11684.8,33161.88,31956.87,24175.93,27294.16,11554.81,8527.18
1390049.9937,1800.92,11581.23,33155.25,31956.63,24180.84,27251.53,11420.82,8534.34
1390049.9957,1828.53,11530.35,33160.02,31959.11,24183.23,27242.23,11356.4,8538.34
1390049.9977,2179.62,11540.56,33163.93,31952.43,24178.13,27261.78,11386.78,8533.76
1390049.9997,2630.71,11585.57,33162.41,31942.66,24169.35,27293.64,11472.85,8523.94
1390050.0017,3042.79,11670.78,33157.64,31933.69,24157.81,27328.35,11592.2,8511.21
1390050.0037,3164.24,11728.72,33153.35,31929.26,24153.9,27351.1,11682.7,8503.15
1390050.0057,2949.86,11765.15,33153.35,31940.75,24157.24,27339.22,11699.44,8498.62
1390050.0077,2380.9,11709.83,33150.44,31948.19,24164.82,27297.45,11602.83,8505.77
1390050.0097,1896.1,11611.51,33152.77,31963.02,24179.46,27258.97,11466.41,8526.42
1390050.0117,1770.31,11543.18,33165.36,31978.9,24191.14,27249.96,11372.66,8545.35
1390050.0137,2064.13,11549.43,33176.57,31982.76,24196.25,27272.75,11384.11,8551.17
1390050.0157,2497.82,11597.16,33196.45,31984.86,24203.11,27320.39,11468.65,8559.37
1390050.0177,2967.74,11680.41,33201.6,31973.32,24190.67,27359.92,11585.38,8542.97
1390050.0197,3174.45,11740.4,33184.2,31950.86,24168.78,27374.65,11682.94,8518.41
1390050.0217,3080.27,11777.26,33163.31,31940.75,24150.99,27358.58,11718.66,8497.62
1390050.0237,2569.29,11743.55,33149.68,31936.94,24149.18,27318.34,11643.79,8495.86
1390050.0257,2025.65,11654.95,33149.06,31944.52,24164.87,27279.76,11517.76,8513.36
1390050.0277,1749.18,11567.74,33157.78,31956.1,24182.47,27261.69,11403.99,8534.34
1390050.0297,1937.77,11548.62,33161.12,31961.44,24183.47,27274.66,11375.86,8540.15
1390050.0317,2312.52,11562.87,33161.6,31957.11,24176.89,27310.04,11426.64,8534.86
1390050.0337,2801.94,11632.63,33161.55,31953.67,24160.77,27341.89,11536.89,8515.5
1390050.0357,3113.37,11706.78,33151.44,31943.71,24142.41,27355.63,11648.61,8496.67
1390050.0377,3151.51,11764.81,33141.52,31936.7,24132.3,27357.44,11717.37,8489.75
1390050.0397,2766.51,11761.71,33130.94,31929.78,24133.16,27326.97,11670.88,8487.89
1390050.0417,2198.12,11690.0,33131.03,31935.74,24148.61,27285.29,11556.82,8502.2
1390050.0437,1793.43,11596.49,33145.34,31954.58,24170.88,27264.5,11432.55,8525.56
1390050.0457,1854.23,11564.92,33164.84,31976.23,24187.9,27273.71,11380.72,8542.44
1390050.0477,2187.16,11570.55,33168.51,31969.26,24187.57,27293.21,11409.57,8537.67
1390050.0497,2660.13,11621.86,33166.7,31955.01,24172.93,27323.92,11500.03,8519.79
1390050.0517,3045.37,11697.06,33158.74,31942.56,24154.95,27348.57,11611.13,8503.82
1390050.0537,3192.04,11760.38,33150.15,31932.79,24140.65,27356.44,11696.48,8494.66
1390050.0557,2945.76,11778.64,33140.81,31927.88,24136.83,27340.51,11699.39,8492.9
1390050.0577,2397.11,11727.91,33139.19,31928.21,24147.7,27302.75,11607.55,8503.15
1390050.0597,1892.95,11631.44,33147.82,31943.56,24175.89,27272.7,11480.43,8527.42
1390050.0617,1813.36,11586.91,33180.48,31986.15,24209.74,27278.14,11406.95,8558.23
1390050.0637,2078.2,11578.75,33189.63,31992.25,24207.4,27294.73,11403.37,8555.7
1390050.0657,2509.64,11603.74,33186.73,31980.71,24189.62,27317.38,11468.94,8538.77
1390050.0677,2936.55,11663.87,33171.23,31956.58,24158.72,27333.17,11566.31,8509.4
1390050.0697,3162.58,11717.23,33138.33,31924.39,24122.15,27333.45,11651.52,8478.55
1390050.0717,3044.89,11755.09,33120.73,31912.52,24111.46,27329.59,11688.76,8468.49
1390050.0737,2569.1,11730.53,33113.87,31906.04,24118.24,27296.02,11623.81,8474.26
1390050.0757,2009.06,11644.79,33124.88,31914.76,24144.13,27263.93,11497.83,8496.57
1390050.0777,1760.1,11565.83,33141.9,31932.74,24166.83,27248.77,11393.6,8515.55
1390050.0797,1920.32,11545.18,33156.11,31948.28,24175.84,27262.45,11369.28,8520.89
1390050.0817,2326.54,11569.17,33163.46,31956.49,24175.89,27300.6,11427.93,8520.79
1390050.0837,2797.17,11630.01,33159.16,31947.76,24158.19,27334.41,11530.93,8507.01
1390050.0857,3114.99,11695.86,33145.15,31923.35,24132.78,27352.05,11634.07,8481.55
1390050.0877,3129.77,11741.5,33132.37,31907.42,24121.67,27353.0,11695.82,8473.68
1390050.0897,2775.19,11748.79,33129.55,31913.67,24128.39,27333.07,11677.22,8482.46
1390050.0917,2194.45,11685.61,33137.13,31926.06,24150.23,27302.65,11570.03,8503.25
1390050.0937,1800.59,11589.24,33144.95,31938.46,24170.45,27276.9,11439.32,8521.7
1390050.0957,1829.48,11541.7,33146.77,31945.57,24170.59,27267.84,11371.18,8523.66
1390050.0977,2164.6,11539.27,33145.15,31939.7,24159.96,27286.91,11395.17,8510.5
1390050.0997,2618.36,11583.95,33141.33,31932.5,24143.27,27316.43,11484.58,8492.76
1390050.1017,3017.76,11654.28,33141.43,31927.3,24127.39,27343.09,11596.01,8468.44
1390050.1037,3153.71,11717.85,33131.13,31916.91,24115.14,27355.25,11683.08,8446.5
1390050.1057,2911.23,11735.63,33111.53,31908.71,24103.93,27318.29,11679.98,8441.12
1390050.1077,2354.72,11685.9,33102.99,31908.23,24112.99,27274.42,11580.23,8462.19
1390050.1097,1855.85,11592.2,33115.25,31920.2,24142.46,27250.29,11451.25,8495.67
1390050.1117,1759.96,11538.94,33137.61,31936.46,24165.78,27247.62,11375.38,8519.22
1390050.1137,2031.04,11536.98,33158.64,31949.48,24177.27,27275.23,11385.25,8534.58
1390050.1157,2479.36,11579.28,33164.08,31953.24,24171.31,27312.28,11464.5,8530.71
1390050.1177,2917.0,11645.7,33155.49,31946.71,24151.14,27346.81,11573.17,8508.49
1390050.1197,3161.48,11718.89,33139.47,31926.92,24128.96,27369.45,11672.64,8486.61
1390050.1217,3045.03,11749.22,33129.84,31913.43,24123.48,27362.64,11707.12,8477.88
1390050.1237,2577.73,11724.66,33118.06,31908.66,24125.77,27312.9,11636.69,8479.31
1390050.1257,2000.0,11626.34,33119.35,31911.52,24140.84,27264.26,11501.12,8491.9
1390050.1277,1758.05,11556.77,33139.85,31929.78,24163.92,27252.01,11401.7,8513.12
1390050.1297,1910.16,11528.68,33148.72,31939.13,24168.11,27261.69,11371.18,8516.22
1390050.1317,2316.95,11552.62,33150.49,31937.32,24159.1,27298.22,11427.36,8508.4
1390050.1337,2769.95,11613.85,33152.16,31933.31,24147.99,27335.79,11528.59,8497.53
1390050.1357,3111.74,11689.0,33140.71,31913.9,24128.49,27345.61,11630.54,8479.64
1390050.1377,3110.7,11732.72,33126.93,31901.89,24121.48,27333.41,11689.43,8469.96
1390050.1397,2775.05,11748.55,33121.73,31909.76,24122.81,27316.19,11671.74,8475.16
1390050.1417,2158.31,11669.06,33112.67,31909.52,24131.78,27276.52,11550.76,8486.08
1390050.1437,1790.0,11579.56,33123.31,31924.68,24151.66,27250.91,11423.78,8504.2
1390050.1457,1809.79,11532.98,33140.81,31941.94,24166.87,27252.34,11360.12,8516.22
1390050.1477,2179.62,11550.28,33156.54,31950.95,24172.74,27281.81,11403.04,8522.61
1390050.1497,2618.41,11592.44,33156.73,31943.52,24163.82,27314.86,11488.96,8516.31
1390050.1517,3045.61,11667.54,33155.4,31935.12,24147.23,27346.42,11600.92,8499.86
1390050.1537,3160.33,11724.57,33149.87,31925.68,24137.74,27364.88,11689.71,8488.51
1390050.1557,2949.33,11754.85,33142.14,31922.49,24135.45,27349.24,11704.02,8483.36
1390050.1577,2365.3,11694.53,33130.84,31913.9,24139.36,27300.36,11603.02,8485.41
1390050.1597,1886.42,11594.73,33132.41,31922.73,24152.71,27259.93,11462.83,8495.67
1390050.1617,1741.55,11520.63,33140.47,31935.27,24164.39,27244.76,11367.04,8505.73
1390050.1637,2024.84,11512.33,33144.43,31939.51,24163.54,27259.4,11369.85,8507.06
1390050.1657,2442.17,11548.57,33148.82,31939.89,24159.72,27286.01,11439.71,8504.25
1390050.1677,2917.81,11630.49,33155.11,31940.37,24152.0,27322.72,11550.14,8499.53
1390050.1697,3132.53,11697.48,33143.72,31930.64,24139.93,27343.8,11652.76,8486.65
1390050.1717,3041.36,11730.1,33120.3,31913.86,24119.48,27327.35,11684.18,8469.01
1390050.1737,2552.6,11703.64,33107.09,31900.08,24115.76,27290.73,11615.18,8468.44
1390050.1757,1999.14,11616.28,33110.1,31908.04,24136.74,27252.77,11484.86,8488.7
1390050.1777,1728.2,11539.79,33126.5,31928.26,24162.58,27241.76,11382.87,8510.88
1390050.1797,1911.45,11520.77,33144.19,31945.9,24172.45,27252.82,11358.79,8518.89
1390050.1817,2293.25,11542.18,33145.19,31937.03,24162.15,27272.08,11410.43,8510.4
1390050.1837,2756.02,11601.16,33143.52,31928.69,24145.7,27298.22,11504.99,8499.1
1390050.1857,3079.32,11679.98,33135.89,31915.14,24129.11,27329.92,11618.04,8484.65
1390050.1877,3110.55,11730.82,33128.93,31908.56,24120.52,27344.04,11687.71,8473.02
1390050.1897,2758.03,11739.78,33130.7,31913.48,24131.68,27318.05,11672.55,8480.41
1390050.1917,2174.28,11662.44,33131.41,31917.29,24149.85,27273.13,11557.68,8493.71
1390050.1937,1787.19,11575.37,33136.42,31926.83,24167.49,27249.96,11428.98,8508.78
1390050.1957,1823.47,11541.18,33156.64,31947.33,24185.33,27259.97,11382.39,8530.67
1390050.1977,2188.25,11566.26,33176.81,31969.26,24197.87,27304.65,11432.32,8545.3
1390050.1997,2633.52,11611.08,33176.52,31962.11,24188.52,27341.27,11517.91,8539.15
1390050.2017,3036.55,11678.84,33161.31,31938.6,24161.96,27365.54,11624.62,8512.12
1390050.2037,3156.42,11732.29,33151.25,31927.49,24150.28,27384.19,11709.5,8499.43
1390050.2057,2949.57,11768.87,33149.06,31932.36,24149.61,27373.98,11725.33,8496.67
1390050.2077,2384.57,11716.75,33144.48,31936.32,24161.82,27332.45,11630.58,8507.78
1390050.2097,1902.06,11625.29,33147.15,31940.13,24180.84,27296.36,11500.26,8526.66
1390050.2117,1766.16,11553.81,33160.6,31953.15,24197.82,27279.67,11405.76,8544.35
1390050.2137,2045.35,11539.27,33163.03,31951.96,24191.81,27287.63,11402.89,8534.62
1390050.2157,2456.86,11565.4,33163.79,31947.47,24180.42,27313.86,11467.36,8523.13
1390050.2177,2920.15,11641.65,33162.5,31940.51,24163.2,27345.71,11576.37,8507.63
1390050.2197,3122.38,11687.95,33137.61,31912.81,24133.45,27351.57,11660.15,8480.26
1390050.2217,3033.92,11718.27,33117.54,31895.64,24112.37,27333.6,11690.67,8460.33
1390050.2237,2533.39,11686.66,33103.52,31891.16,24111.7,27285.63,11618.76,8462.53
1390050.2257,1988.89,11598.16,33101.32,31898.03,24127.77,27238.09,11484.58,8477.55
1390050.2277,1704.41,11514.09,33110.77,31909.09,24146.56,27224.45,11373.0,8491.37
1390050.2297,1893.71,11503.13,33126.79,31927.02,24159.86,27240.9,11354.97,8503.87
1390050.2317,2270.27,11531.74,33142.48,31943.99,24168.07,27278.81,11415.44,8513.17
1390050.2337,2750.21,11589.48,33139.8,31936.94,24147.89,27305.65,11511.99,8498.0
1390050.2357,3055.24,11653.47,33125.93,31917.34,24127.77,27329.88,11616.66,8476.45
1390050.2377,3100.78,11705.92,33118.3,31911.57,24119.86,27337.75,11685.9,8465.58
1390050.2397,2732.18,11710.41,33115.06,31909.9,24121.24,27308.9,11657.29,8464.53
1390050.2417,2169.51,11642.12,33113.39,31903.94,24132.97,27263.41,11536.08,8475.11
1390050.2437,1761.15,11548.9,33120.59,31907.8,24152.23,27241.47,11410.43,8491.85
1390050.2457,1808.17,11517.38,33138.57,31932.93,24167.54,27241.42,11363.22,8505.68
1390050.2477,2133.23,11516.86,33140.38,31929.4,24162.92,27268.56,11394.69,8496.48
1390050.2497,2611.02,11568.6,33148.48,31927.4,24156.38,27307.56,11485.53,8489.32
1390050.2517,2991.96,11639.21,33144.76,31914.38,24139.69,27328.21,11585.38,8470.39
1390050.2537,3134.44,11692.91,33125.98,31895.5,24116.95,27329.64,11660.53,8448.51
1390050.2557,2897.07,11714.94,33114.29,31888.87,24109.41,27308.61,11668.11,8449.17
1390050.2577,2354.62,11662.1,33106.38,31887.96,24118.43,27267.6,11572.51,8465.0
1390050.2597,1838.3,11559.39,33104.19,31893.4,24135.78,27232.94,11434.51,8489.51
1390050.2617,1733.11,11505.41,33122.5,31911.28,24157.1,27231.51,11348.63,8510.54
1390050.2637,2001.38,11503.17,33136.66,31918.2,24163.58,27254.49,11359.26,8518.46
1390050.2657,2435.3,11539.27,33141.95,31918.24,24153.76,27286.96,11431.79,8510.4
1390050.2677,2884.2,11616.85,33145.24,31918.0,24144.32,27322.82,11545.04,8499.29
1390050.2697,3125.91,11683.61,33133.65,31902.75,24130.06,27339.75,11645.08,8480.07
1390050.2717,3024.96,11716.08,33115.77,31885.96,24116.95,27324.35,11683.56,8464.67
1390050.2737,2553.61,11685.28,33101.23,31879.33,24113.56,27281.91,11611.65,8463.57
1390050.2757,1994.9,11605.12,33107.9,31892.45,24134.69,27247.38,11487.91,8488.32
1390050.2777,1740.12,11530.11,33123.74,31912.62,24157.34,27231.41,11382.15,8507.73
1390050.2797,1901.82,11518.19,33145.43,31930.78,24174.6,27249.63,11360.55,8522.32
1390050.2817,2298.16,11535.31,33149.72,31928.16,24168.88,27284.82,11417.82,8513.45
1390050.2837,2755.74,11590.29,33138.99,31913.95,24144.7,27315.67,11518.91,8491.09
1390050.2857,3074.07,11654.76,33120.87,31891.06,24116.71,27330.88,11614.13,8463.81
1390050.2877,3089.86,11700.44,33107.48,31880.1,24102.4,27334.03,11678.08,8448.74
1390050.2897,2737.33,11708.74,33101.71,31884.67,24106.55,27308.66,11659.05,8453.66
1390050.2917,2165.13,11641.65,33100.08,31890.68,24123.24,27266.51,11546.09,8471.11
1390050.2937,1765.54,11542.13,33102.95,31899.27,24138.02,27231.84,11410.76,8486.56
1390050.2957,1797.06,11500.88,33120.78,31910.71,24154.28,27232.08,11349.58,8498.86
1390050.2977,2136.76,11505.51,33136.13,31919.67,24161.91,27264.07,11382.58,8503.96
1390050.2997,2592.71,11553.81,33136.94,31915.1,24149.85,27294.4,11466.6,8493.71
1390050.3017,2983.05,11621.43,33125.5,31899.79,24129.73,27314.33,11569.93,8473.44
1390050.3037,3123.67,11682.51,33114.48,31888.87,24116.47,27328.45,11661.24,8458.76
1390050.3057,2907.66,11711.5,33111.48,31892.11,24120.52,27319.63,11676.07,8459.86
1390050.3077,2367.26,11667.68,33110.38,31897.98,24134.73,27278.38,11584.43,8470.58
1390050.3097,1865.58,11573.94,33119.21,31906.66,24155.38,27247.53,11451.72,8490.47
1390050.3117,1757.15,11517.91,33130.55,31918.53,24166.73,27234.99,11366.75,8506.11
1390050.3138,2012.73,11509.75,33144.57,31929.26,24172.26,27255.92,11367.94,8519.65
1390050.3158,2451.8,11553.0,33155.59,31932.55,24169.59,27294.21,11443.28,8515.17
1390050.3178,2881.62,11616.14,33148.2,31920.72,24146.94,27319.82,11544.28,8491.33
1390050.3198,3130.96,11684.85,33135.94,31909.76,24128.58,27335.74,11643.65,8473.68
1390050.3218,3024.24,11715.56,33122.31,31906.7,24121.81,27328.92,11680.32,8467.72
1390050.3238,2573.97,11700.25,33113.29,31897.69,24125.29,27297.07,11624.05,8472.59
1390050.3258,2002.1,11615.56,33114.48,31901.89,24141.74,27266.84,11502.65,8489.75
1390050.3278,1742.94,11539.94,33123.78,31918.91,24159.86,27245.38,11398.03,8507.06
1390050.3298,1888.7,11516.95,33148.63,31942.28,24180.18,27256.54,11367.66,8524.9
1390050.3318,2291.73,11537.7,33158.21,31947.9,24178.08,27275.04,11420.63,8520.08
1390050.3338,2729.32,11586.0,33148.72,31936.22,24156.0,27302.08,11509.37,8497.86
1390050.3358,3070.21,11659.0,33134.46,31921.82,24134.35,27323.3,11609.65,8475.78
1390050.3378,3076.03,11696.05,33115.77,31904.03,24115.71,27328.83,11671.16,8456.95
1390050.3398,2751.4,11705.35,33108.05,31899.03,24115.37,27309.13,11652.52,8453.8
1390050.3418,2152.3,11627.72,33106.04,31893.4,24129.92,27266.51,11531.93,8469.49
1390050.3438,1781.99,11546.71,33120.68,31911.95,24154.38,27238.85,11417.44,8493.95
1390050.3458,1793.77,11508.61,33136.9,31934.22,24170.93,27246.29,11363.89,8515.98
1390050.3478,2159.02,11526.16,33149.63,31945.9,24172.26,27287.39,11403.61,8522.18
1390050.3498,2588.08,11564.45,33150.06,31935.89,24159.63,27318.29,11485.24,8507.73
1390050.3518,3005.27,11637.02,33141.81,31918.2,24137.5,27336.03,11589.77,8481.46
1390050.3538,3117.99,11685.33,33124.69,31895.83,24116.57,27337.27,11666.97,8460.67
1390050.3558,2918.24,11716.32,33115.2,31896.21,24106.22,27319.29,11678.84,8455.52
1390050.3578,2350.04,11663.15,33108.14,31900.41,24119.43,27277.0,11580.61,8469.2
1390050.3598,1868.25,11569.41,33112.05,31915.91,24147.47,27241.38,11446.19,8499.19
1390050.3618,1729.63,11510.76,33128.46,31936.84,24175.36,27233.37,11361.27,8525.18
1390050.3638,2001.43,11498.36,33132.99,31937.36,24170.78,27248.43,11356.5,8518.51
1390050.3658,2403.45,11525.25,33129.17,31929.45,24153.9,27274.9,11417.53,8503.1
1390050.3678,2868.32,11601.26,33127.88,31923.39,24134.78,27311.9,11530.5,8488.7
1390050.3698,3095.82,11672.4,33120.3,31913.24,24118.04,27335.69,11637.88,8474.54
1390050.3718,3020.29,11712.22,33108.29,31905.46,24107.98,27327.35,11677.93,8464.24
1390050.3738,2547.07,11693.86,33099.46,31905.61,24109.51,27292.97,11619.62,8466.01
1390050.3758,2001.24,11610.46,33104.76,31917.72,24131.63,27261.31,11497.69,8482.89
1390050.3778,1718.19,11526.97,33111.24,31928.64,24145.89,27232.75,11382.06,8497.29
1390050.3798,1878.21,11502.74,33121.78,31944.47,24150.8,27239.71,11352.21,8507.63
1390050.3818,2263.26,11526.78,33132.03,31949.19,24154.43,27276.09,11405.42,8512.31
1390050.3838,2727.41,11582.33,33136.37,31944.71,24145.08,27309.33,11499.84,8509.3
1390050.3858,3053.47,11651.23,33120.35,31916.0,24123.05,27326.63,11599.35,8489.42
1390050.3878,3087.95,11699.06,33111.15,31907.09,24112.94,27337.13,11666.2,8479.74
1390050.3898,2737.19,11702.63,33092.6,31891.25,24102.6,27304.27,11642.74,8468.72
1390050.3918,2154.02,11624.67,33086.97,31889.44,24112.37,27259.16,11526.11,8476.31
1390050.3938,1769.07,11537.51,33097.84,31905.89,24131.59,27231.98,11405.09,8496.95
1390050.3958,1793.53,11500.07,33119.49,31929.78,24152.42,27237.61,11345.2,8516.41
1390050.3978,2141.14,11517.1,33128.65,31937.08,24153.04,27266.79,11377.53,8516.98
1390050.3998,2582.84,11559.77,33133.84,31933.6,24144.8,27302.08,11462.36,8506.11
1390050.4018,3003.79,11641.55,33137.04,31927.11,24133.73,27335.74,11581.23,8490.9
1390050.4038,3131.49,11694.43,33128.65,31917.96,24123.34,27353.05,11663.87,8479.93
1390050.4058,2927.02,11721.23,33110.43,31912.76,24108.37,27332.36,11672.69,8467.25
1390050.4078,2360.39,11661.67,33099.08,31911.09,24112.99,27287.72,11575.6,8473.68
1390050.4098,1893.71,11582.76,33110.62,31931.45,24139.93,27261.98,11458.11,8499.62
1390050.4118,1750.04,11516.05,33120.4,31949.09,24154.24,27248.2,11363.65,8514.98
1390050.4138,2025.22,11515.48,33132.84,31960.25,24156.81,27266.31,11369.18,8519.22
1390050.4158,2424.05,11537.93,33132.27,31942.18,24145.27,27296.98,11436.51,8505.77
1390050.4178,2889.4,11614.37,33130.75,31928.4,24128.63,27332.45,11551.81,8488.61
1390050.4198,3105.12,11671.93,33119.4,31914.24,24112.37,27349.9,11649.66,8478.17
1390050.4218,3032.35,11708.55,33101.18,31901.41,24094.97,27337.89,11683.04,8464.96
1390050.4238,2549.89,11689.0,33097.37,31905.8,24105.84,27300.07,11613.08,8472.83
1390050.4258,2018.64,11615.71,33104.85,31925.35,24125.15,27269.27,11490.97,8486.18
1390050.4278,1736.93,11537.98,33125.79,31948.71,24152.28,27253.01,11386.78,8511.5
1390050.4298,1908.64,11521.53,33142.95,31956.1,24163.92,27260.02,11362.55,8519.98
1390050.4318,2272.32,11529.97,33145.43,31947.19,24156.48,27284.48,11408.14,8509.45
1390050.4338,2751.92,11589.43,33146.72,31937.89,24144.37,27315.52,11505.41,8504.49
1390050.4358,3067.35,11659.43,33140.09,31922.06,24129.54,27341.32,11612.7,8493.85
1390050.4378,3113.27,11708.21,33124.21,31907.04,24111.37,27348.43,11684.09,8477.5
1390050.4398,2750.02,11712.5,33111.39,31904.18,24108.51,27321.06,11659.96,8475.07
1390050.4418,2186.82,11647.61,33108.38,31910.33,24121.0,27278.62,11547.52,8487.37
1390050.4438,1773.21,11555.72,33117.92,31926.78,24145.08,27254.97,11422.83,8510.02
1390050.4458,1818.94,11524.58,33138.9,31947.9,24166.01,27268.7,11370.56,8526.56
1390050.4478,2149.39,11532.59,33151.96,31954.1,24170.07,27304.6,11403.09,8531.86
1390050.4498,2616.98,11577.37,33150.96,31948.28,24156.72,27323.63,11486.39,8520.99
1390050.4518,3007.75,11646.7,33143.91,31936.03,24138.64,27334.84,11597.3,8503.82
1390050.4538,3156.38,11697.63,33127.22,31916.96,24118.09,27352.53,11678.51,8483.74
1390050.4558,2921.49,11720.09,33111.48,31909.28,24108.46,27340.84,11686.85,8479.98
1390050.4578,2383.28,11675.88,33107.33,31915.24,24116.28,27298.64,11598.02,8486.46
1390050.4598,1863.53,11574.56,33107.57,31919.58,24129.58,27258.83,11467.03,8492.76
1390050.4618,1737.79,11505.7,33114.34,31936.22,24142.84,27245.48,11374.62,8501.01
1390050.4638,1991.46,11500.5,33126.55,31939.18,24149.33,27262.4,11375.48,8504.3
1390050.4658,2425.38,11538.55,33133.08,31932.26,24145.99,27296.21,11450.1,8491.71
1390050.4678,2876.81,11612.61,33133.89,31929.93,24135.78,27332.31,11562.73,8479.79
1390050.4698,3127.86,11681.84,33123.4,31922.96,24117.42,27356.29,11665.44,8473.92
1390050.4718,3037.02,11715.8,33109.81,31915.62,24106.7,27348.62,11700.25,8471.92
1390050.4738,2576.69,11687.61,33103.99,31913.24,24112.75,27313.52,11637.4,8477.88
1390050.4758,2015.78,11612.7,33114.77,31923.44,24138.6,27286.72,11523.44,8503.39
1390050.4778,1748.28,11538.7,33131.36,31943.23,24162.34,27271.08,11423.02,8526.99
1390050.4798,1899.91,11511.47,33141.9,31946.38,24165.35,27273.09,11388.11,8523.04
1390050.4818,2275.04,11519.77,33139.33,31937.89,24152.81,27292.21,11417.72,8506.92
1390050.4838,2731.47,11576.08,33130.36,31920.72,24131.11,27319.82,11515.24,8489.56
1390050.4858,3060.29,11640.98,33112.24,31901.03,24103.45,27340.13,11618.38,8468.68
1390050.4878,3096.91,11689.52,33095.98,31885.82,24089.53,27344.47,11689.86,8458.76
1390050.4898,2751.45,11694.96,33084.68,31879.71,24088.96,27319.77,11671.88,8449.94
1390050.4918,2167.32,11623.19,33080.87,31884.01,24101.16,27275.37,11550.86,8457.33
1390050.4938,1766.59,11533.55,33102.33,31910.8,24133.11,27258.21,11426.97,8497.86
1390050.4958,1797.44,11500.93,33127.98,31943.9,24158.43,27267.89,11374.57,8528.52
1390050.4978,2131.8,11508.13,33137.52,31949.95,24160.44,27297.93,11403.85,8529.71
1390050.4998,2592.09,11564.16,33141.76,31946.33,24150.23,27332.02,11496.5,8519.7
1390050.5018,2988.62,11639.07,33139.28,31935.36,24132.3,27352.67,11606.79,8506.73
1390050.5038,3136.59,11699.82,33125.98,31921.68,24114.9,27358.44,11688.85,8490.33
1390050.5058,2915.81,11720.23,33111.15,31909.61,24110.22,27345.9,11700.44,8485.75
1390050.5078,2372.17,11671.69,33096.6,31901.03,24111.99,27301.84,11607.27,8487.42
1390050.5098,1852.27,11566.4,33098.32,31904.84,24126.2,27261.88,11461.02,8499.1
1390050.5118,1735.16,11506.46,33113.53,31919.63,24143.36,27248.43,11373.81,8512.21
1390050.5138,1989.51,11500.5,33127.98,31933.36,24151.38,27268.7,11373.47,8519.75
1390050.5158,2423.86,11537.6,33131.6,31929.26,24144.46,27300.79,11446.53,8512.4
1390050.5178,2855.68,11596.54,33119.16,31913.71,24121.57,27322.68,11549.14,8490.99
1390050.5198,3119.9,11671.26,33114.01,31904.89,24111.27,27345.18,11654.04,8476.26
1390050.5218,3026.77,11711.22,33111.96,31902.94,24108.22,27344.9,11694.0,8474.06
1390050.5238,2561.09,11680.13,33089.74,31887.82,24096.83,27293.83,11618.38,8463.19
1390050.5258,1973.82,11581.57,33083.59,31890.78,24108.6,27250.25,11479.86,8472.73
1390050.5278,1726.1,11520.1,33110.34,31928.11,24140.89,27242.23,11382.53,8504.68
1390050.5298,1866.67,11496.83,33129.31,31941.99,24152.42,27253.54,11352.73,8517.31
1390050.5318,2276.37,11523.2,33138.47,31941.61,24148.18,27286.72,11415.24,8515.07
1390050.5338,2728.37,11581.47,33135.51,31933.79,24133.83,27322.53,11520.1,8502.29
1390050.5358,3072.74,11652.61,33115.1,31912.19,24111.08,27341.89,11621.43,8476.21
1390050.5378,3085.09,11693.96,33101.47,31895.07,24100.59,27349.14,11674.93,8462.33
1390050.5398,2765.08,11706.31,33091.98,31895.69,24098.11,27335.79,11654.62,8461.43
1390050.5418,2162.55,11633.16,33089.02,31899.17,24110.94,27298.88,11543.28,8477.07
1390050.5438,1771.26,11545.09,33096.08,31914.09,24130.87,27251.77,11416.63,8500.91
1390050.5458,1770.45,11496.74,33110.67,31932.21,24146.27,27245.67,11351.87,8514.6
1390050.5478,2125.36,11508.18,33119.63,31937.13,24147.32,27262.64,11385.25,8514.79
1390050.5498,2558.33,11557.87,33120.35,31933.6,24136.21,27292.54,11470.22,8504.77
1390050.5518,2988.43,11640.17,33114.68,31923.92,24121.24,27324.82,11582.19,8487.99
1390050.5538,3121.23,11696.01,33104.38,31906.51,24108.79,27342.61,11670.21,8476.78
1390050.5558,2933.69,11721.28,33094.89,31898.98,24101.55,27329.88,11687.95,8467.77
1390050.5578,2363.87,11671.45,33092.17,31898.74,24112.99,27291.92,11595.44,8476.93
1390050.5598,1878.4,11580.85,33101.09,31917.43,24133.64,27260.02,11466.55,8497.76
1390050.5618,1735.4,11518.05,33114.68,31933.03,24149.09,27252.58,11379.67,8513.98
1390050.5638,2007.87,11515.19,33132.51,31941.99,24155.19,27274.18,11382.91,8520.89
1390050.5658,2425.48,11549.19,33140.52,31939.27,24152.85,27308.13,11453.68,8517.03
1390050.5678,2900.36,11622.62,33140.47,31937.6,24139.93,27336.46,11561.2,8505.25
1390050.5698,3124.52,11682.03,33121.78,31912.24,24116.09,27347.85,11652.61,8478.21
1390050.5718,3044.7,11714.7,33103.99,31897.69,24099.45,27339.99,11687.52,8458.71
1390050.5738,2571.44,11692.95,33095.41,31890.73,24100.45,27304.37,11627.82,8459.38
1390050.5758,2019.98,11615.18,33104.28,31903.03,24123.91,27275.9,11509.04,8483.12
1390050.5778,1736.93,11535.69,33122.59,31923.06,24148.85,27249.53,11400.27,8511.21
1390050.5798,1889.52,11506.89,33134.89,31931.79,24155.57,27247.72,11361.84,8522.03
1390050.5818,2277.28,11533.45,33140.09,31934.27,24151.8,27283.1,11413.38,8518.17
1390050.5838,2741.86,11590.91,33140.47,31929.5,24138.93,27319.01,11509.71,8502.91
1390050.5858,3079.56,11663.72,33127.41,31916.62,24121.24,27345.57,11621.29,8484.7
1390050.5878,3114.61,11707.59,33111.96,31903.27,24106.55,27352.67,11692.05,8468.53
1390050.5898,2775.48,11715.56,33099.8,31903.18,24102.21,27320.63,11666.39,8461.76
1390050.5918,2182.91,11642.55,33107.24,31918.77,24123.34,27279.52,11551.33,8474.97
1390050.5938,1781.03,11551.62,33116.58,31924.3,24143.98,27249.01,11424.59,8494.43
1390050.5958,1788.81,11507.42,33134.18,31937.98,24161.53,27249.63,11361.41,8519.94
1390050.5978,2143.19,11524.82,33148.24,31942.66,24164.77,27280.67,11394.88,8529.09
1390050.5998,2582.5,11566.83,33152.68,31939.22,24156.91,27312.23,11480.76,8520.41
1390050.6018,3006.6,11644.32,33139.52,31924.35,24135.21,27338.46,11595.2,8499.58
1390050.6038,3125.24,11690.05,33114.53,31901.41,24111.42,27346.33,11671.83,8479.26
1390050.6058,2929.74,11720.99,33103.9,31898.45,24105.6,27333.5,11686.37,8476.69
1390050.6078,2369.64,11671.83,33100.61,31899.84,24119.81,27298.74,11598.54,8490.47
1390050.6098,1886.46,11586.24,33110.72,31911.62,24144.94,27265.5,11474.04,8509.45
1390050.6118,1723.34,11514.09,33120.35,31926.59,24159.96,27244.29,11377.24,8514.79
1390050.6138,1994.9,11506.13,33121.88,31930.74,24155.91,27260.55,11372.85,8507.54
1390050.6158,2402.16,11531.21,33121.78,31919.91,24144.18,27297.93,11434.75,8496.33
1390050.6178,2875.52,11607.79,33120.02,31914.29,24127.06,27333.07,11543.18,8481.41
1390050.6198,3097.01,11673.36,33114.77,31897.07,24115.42,27359.63,11643.89,8471.68
1390050.6218,3039.88,11716.08,33105.9,31890.83,24107.46,27350.62,11689.9,8468.2
1390050.6238,2559.76,11689.57,33099.18,31892.21,24111.56,27315.76,11626.91,8473.25
1390050.6258,2008.87,11605.88,33100.51,31902.27,24129.11,27269.75,11500.6,8492.57
1390050.6278,1697.45,11509.9,33103.18,31910.38,24142.32,27226.88,11380.82,8505.68
1390050.6298,1875.54,11492.3,33117.82,31926.97,24150.61,27237.18,11353.64,8514.69
1390050.6318,2252.29,11516.19,33130.36,31928.4,24153.52,27277.76,11412.34,8514.88
1390050.6338,2735.47,11579.23,33131.65,31920.01,24142.46,27318.53,11514.62,8499.86
1390050.6358,3050.52,11641.98,33114.39,31897.88,24117.19,27341.7,11611.84,8474.16
1390050.6378,3106.79,11695.34,33101.23,31889.92,24104.65,27348.47,11677.65,8467.25
1390050.6398,2745.87,11695.72,33088.26,31884.91,24100.07,27307.56,11650.99,8463.57
1390050.6418,2174.09,11624.86,33085.3,31891.49,24114.9,27258.97,11537.51,8478.21
1390050.6438,1752.66,11528.4,33093.98,31905.37,24134.07,27235.75,11414.0,8495.05
1390050.6458,1782.47,11484.48,33109.81,31919.86,24145.18,27234.56,11353.83,8505.68
1390050.6478,2104.71,11485.58,33120.87,31919.15,24149.75,27263.84,11382.72,8507.4
1390050.6498,2572.54,11534.88,33127.98,31915.0,24143.17,27301.27,11468.6,8499.58
1390050.6518,2973.37,11607.55,33123.78,31902.32,24124.63,27330.45,11579.32,8477.78
1390050.6538,3130.25,11672.07,33118.16,31893.21,24115.71,27348.57,11669.35,8465.43
1390050.6558,2915.67,11704.26,33112.1,31895.88,24117.04,27330.83,11686.33,8467.91
1390050.6578,2384.71,11666.54,33113.77,31904.13,24132.59,27286.72,11600.92,8485.56
1390050.6598,1861.14,11564.92,33111.53,31902.7,24144.75,27240.18,11455.73,8497.91
1390050.6618,1720.24,11496.12,33118.3,31919.15,24158.24,27227.69,11361.08,8512.07
1390050.6638,1978.92,11492.3,33126.79,31929.07,24162.68,27249.48,11365.22,8519.51
1390050.6658,2414.42,11532.93,33137.56,31935.03,24158.91,27285.05,11437.7,8515.26
1390050.6678,2864.93,11607.22,33138.71,31932.07,24143.08,27319.1,11545.52,8499.1
1390050.6698,3113.6,11666.92,33124.88,31913.67,24120.86,27336.22,11642.27,8477.74
1390050.6718,3024.24,11702.35,33107.57,31895.69,24104.65,27324.06,11680.46,8462.95
1390050.6738,2562.14,11678.51,33096.46,31891.54,24104.31,27286.15,11615.47,8465.1
1390050.6758,1990.46,11594.3,33098.46,31896.55,24122.05,27249.39,11488.82,8486.7
1390050.6778,1709.7,11515.33,33110.91,31917.77,24144.65,27234.08,11384.54,8509.16
1390050.6798,1866.58,11497.74,33131.17,31936.55,24158.39,27246.62,11357.64,8519.94
1390050.6818,2251.86,11514.9,33139.95,31941.47,24156.95,27279.33,11406.42,8518.51
1390050.6838,2725.08,11576.84,33135.8,31937.51,24144.75,27314.95,11511.37,8506.2
1390050.6858,3058.86,11646.84,33122.69,31917.15,24124.63,27339.51,11619.43,8485.51
1390050.6878,3102.35,11701.78,33109.86,31897.74,24112.99,27343.66,11686.23,8472.01
1390050.6898,2755.17,11701.63,33099.23,31895.55,24111.51,27313.57,11659.43,8470.97
1390050.6918,2173.61,11628.3,33091.69,31899.74,24121.34,27264.55,11539.41,8474.88
1390050.6938,1759.43,11536.12,33102.95,31920.44,24143.27,27243.09,11413.0,8495.38
1390050.6958,1776.22,11496.83,33122.16,31934.79,24160.29,27249.01,11354.83,8507.73
1390050.6978,2104.9,11502.6,33137.71,31935.22,24165.73,27277.14,11383.39,8515.74
1390050.6998,2575.92,11560.73,33148.2,31930.88,24160.05,27316.91,11478.43,8514.88
1390050.7018,2980.33,11633.59,33142.24,31916.34,24141.6,27341.46,11584.95,8500.77
1390050.7038,3121.95,11685.18,33115.92,31892.83,24113.13,27343.09,11661.67,8475.5
1390050.7058,2900.08,11698.77,33093.98,31878.67,24100.26,27322.44,11668.78,8463.19
1390050.7078,2373.84,11655.0,33086.4,31884.15,24107.41,27285.34,11580.28,8474.59
1390050.7098,1853.23,11556.77,33092.69,31896.21,24128.73,27249.24,11441.66,8498.29
1390050.7118,1723.91,11499.93,33112.91,31920.29,24149.23,27238.75,11359.98,8516.46
1390050.7138,1970.63,11488.49,33128.46,31935.27,24160.05,27253.11,11360.89,8524.56
1390050.7158,2404.59,11521.91,33130.08,31934.65,24150.52,27281.34,11429.17,8514.36
1390050.7178,2848.48,11589.48,33130.55,31928.11,24138.74,27317.19,11536.93,8500.86
1390050.7198,3124.29,11664.63,33117.97,31911.9,24123.43,27343.56,11644.94,8482.74
1390050.7218,3032.73,11701.39,33105.09,31900.84,24112.9,27339.13,11686.14,8470.35
1390050.7238,2586.22,11685.09,33096.75,31895.02,24114.33,27305.32,11631.97,8472.35
1390050.7258,2007.87,11597.35,33101.23,31900.31,24134.07,27271.66,11507.08,8490.09
1390050.7278,1747.08,11524.15,33118.25,31921.44,24157.81,27256.44,11401.94,8512.21
1390050.7298,1876.35,11500.46,33135.61,31941.61,24166.92,27266.17,11372.62,8520.13
1390050.7318,2276.95,11523.39,33143.1,31945.85,24160.63,27292.87,11419.01,8501.67
1390050.7338,2723.03,11569.98,33132.75,31929.54,24140.55,27316.29,11504.56,8481.79
1390050.7358,3080.32,11643.94,33122.31,31911.04,24122.05,27340.8,11611.42,8473.97
1390050.7378,3091.43,11683.18,33105.47,31893.35,24109.94,27329.07,11669.16,8469.77
1390050.7398,2767.71,11690.57,33091.93,31884.82,24101.21,27294.73,11645.51,8470.06
1390050.7418,2167.94,11622.53,33093.07,31887.92,24116.95,27258.54,11532.93,8486.99
1390050.7438,1772.21,11534.31,33106.24,31904.61,24138.26,27235.89,11409.47,8506.11
1390050.7458,1763.49,11482.96,33122.4,31924.73,24153.76,27232.84,11343.15,8518.41
1390050.7478,2122.07,11495.5,33136.56,31933.93,24160.15,27264.46,11376.29,8522.85
1390050.7498,2558.42,11541.56,33136.51,31931.07,24150.37,27299.93,11463.79,8515.17
1390050.7518,2989.67,11622.62,33127.69,31922.2,24131.25,27330.78,11576.94,8496.48
1390050.7538,3119.33,11679.79,33111.39,31902.7,24112.13,27345.95,11667.54,8473.83
1390050.7558,2928.92,11705.59,33096.41,31897.12,24102.36,27327.35,11682.18,8460.14
1390050.7578,2364.92,11660.15,33090.55,31900.46,24112.47,27288.2,11592.15,8471.2
1390050.7598,1874.59,11573.46,33105.71,31918.91,24142.94,27261.26,11463.79,8502.48
1390050.7618,1715.47,11501.7,33119.87,31929.74,24161.87,27247.38,11367.18,8522.23
1390050.7638,1982.16,11492.16,33129.6,31934.93,24165.16,27260.78,11365.08,8526.42
1390050.7658,2391.24,11520.48,33131.22,31930.4,24156.53,27282.05,11428.79,8516.88
1390050.7678,2865.36,11591.67,33129.17,31922.77,24138.83,27314.38,11538.79,8500.67
1390050.7698,3117.04,11666.25,33121.97,31912.71,24126.25,27340.08,11646.32,8487.51
1390050.7718,3049.71,11705.3,33110.77,31909.04,24119.81,27339.56,11689.28,8481.17
1390050.7738,2573.92,11683.42,33096.98,31902.98,24118.57,27303.94,11629.01,8480.45
1390050.7758,2005.96,11593.49,33098.84,31904.51,24131.3,27260.21,11495.54,8494.09
1390050.7778,1718.52,11511.47,33115.68,31920.87,24151.66,27233.6,11385.35,8512.88
1390050.7798,1870.25,11491.35,33134.75,31940.42,24168.02,27246.62,11354.97,8526.71
1390050.7818,2247.05,11510.42,33133.94,31932.74,24159.34,27276.09,11401.23,8518.22
1390050.7838,2712.54,11568.02,33131.22,31925.92,24145.03,27310.09,11503.13,8505.49
1390050.7858,3066.25,11642.36,33115.53,31911.81,24120.95,27338.41,11618.0,8481.55
1390050.7878,3103.92,11684.66,33099.99,31898.45,24105.46,27345.33,11688.14,8464.48
1390050.7898,2762.27,11697.77,33096.75,31898.69,24107.6,27313.04,11662.15,8465.62
1390050.7918,2165.51,11623.57,33093.41,31897.45,24120.29,27271.8,11543.47,8478.93
1390050.7938,1762.68,11537.03,33101.99,31909.56,24140.79,27244.95,11418.53,8498.86
1390050.7958,1759.43,11487.49,33115.53,31919.77,24156.1,27238.04,11345.67,8513.21
1390050.7978,2102.76,11495.73,33126.64,31923.58,24156.95,27263.26,11375.86,8514.02
1390050.7998,2548.17,11540.75,33129.98,31915.57,24150.28,27297.74,11466.36,8503.68
1390050.8018,2987.77,11623.81,33122.4,31906.32,24128.01,27324.25,11584.86,8486.8
1390050.8038,3126.86,11682.18,33112.48,31897.36,24114.04,27334.26,11668.49,8472.49
1390050.8058,2938.08,11717.27,33100.18,31897.41,24109.41,27322.49,11686.71,8464.05
1390050.8078,2362.54,11663.1,33092.79,31895.21,24117.23,27284.67,11591.48,8470.01
1390050.8098,1868.2,11573.75,33096.03,31906.23,24131.83,27252.34,11457.83,8487.85
1390050.8118,1714.99,11509.23,33118.54,31935.65,24158.29,27249.34,11373.33,8519.51
1390050.8138,1996.09,11509.23,33137.23,31948.47,24170.93,27270.75,11381.58,8533.86
1390050.8158,2398.92,11535.6,33146.0,31943.52,24169.21,27299.17,11446.72,8529.57
1390050.8178,2875.04,11604.93,33136.18,31924.16,24147.18,27323.92,11546.9,8506.92
1390050.8198,3100.78,11660.39,33116.49,31904.51,24124.34,27340.18,11639.26,8485.6
1390050.8218,3044.46,11702.06,33100.9,31893.92,24109.75,27337.89,11684.75,8473.11
1390050.8238,2554.8,11675.17,33090.21,31886.1,24107.75,27297.45,11619.62,8475.78
1390050.8258,2001.52,11591.48,33093.12,31896.4,24123.39,27241.9,11492.06,8492.28
1390050.8278,1702.02,11508.51,33114.48,31920.72,24155.33,27227.17,11380.82,8519.56
1390050.8298,1872.92,11491.11,33133.03,31937.32,24168.59,27244.05,11351.59,8531.0
1390050.8318,2232.31,11497.26,33131.6,31925.78,24158.29,27264.6,11386.16,8518.03
1390050.8338,2725.65,11563.02,33130.51,31919.2,24144.46,27300.74,11491.25,8502.29
1390050.8358,3061.63,11645.94,33130.41,31914.76,24135.64,27335.22,11613.28,8494.52
1390050.8378,3127.38,11701.59,33123.5,31909.66,24127.68,27344.18,11687.66,8486.61
1390050.8398,2765.37,11699.39,33107.19,31904.61,24121.67,27313.33,11661.91,8484.94
1390050.8418,2192.69,11630.11,33104.47,31908.09,24137.4,27266.74,11542.8,8499.53
1390050.8438,1762.34,11536.55,33113.63,31923.97,24161.15,27239.47,11413.38,8521.08
1390050.8458,1783.13,11497.83,33132.84,31951.91,24177.41,27246.57,11363.36,8535.53
1390050.8478,2098.23,11501.36,33141.33,31951.77,24175.89,27277.38,11391.21,8536.86
1390050.8498,2568.91,11549.19,33143.76,31945.18,24166.01,27311.33,11475.61,8526.47
1390050.8518,2981.28,11632.4,33146.53,31941.47,24159.96,27339.56,11593.68,8519.7
1390050.8538,3147.98,11693.05,33138.66,31933.12,24147.08,27351.1,11681.65,8504.34
1390050.8558,2926.78,11714.13,33121.26,31923.97,24132.16,27328.88,11688.23,8488.37
1390050.8578,2376.94,11658.34,33110.48,31917.86,24131.21,27282.53,11591.96,8488.61
1390050.8598,1850.08,11554.62,33110.0,31917.0,24147.13,27241.38,11453.63,8499.62
1390050.8618,1709.03,11487.58,33118.78,31925.83,24161.15,27228.93,11360.79,8510.16
1390050.8638,1961.66,11484.48,33129.41,31936.22,24165.78,27249.91,11360.6,8516.31
1390050.8658,2390.62,11520.58,33137.75,31945.85,24161.72,27284.91,11429.6,8517.65
1390050.8678,2846.38,11589.05,33127.12,31930.45,24142.36,27308.18,11531.97,8500.34
1390050.8698,3099.87,11654.95,33111.29,31904.03,24119.81,27325.01,11629.01,8480.07
1390050.8718,3039.27,11706.78,33106.04,31897.74,24116.71,27331.74,11682.89,8477.74
1390050.8738,2582.69,11691.05,33108.67,31899.41,24126.29,27304.7,11629.2,8488.08
1390050.8758,2019.31,11605.55,33117.35,31909.52,24152.09,27271.42,11505.32,8508.78
1390050.8778,1727.49,11519.91,33124.83,31928.5,24172.69,27257.11,11392.02,8531.62
1390050.8798,1876.31,11499.79,33134.18,31941.7,24177.65,27266.6,11360.46,8539.34
1390050.8818,2255.11,11520.53,33143.43,31943.33,24168.49,27306.8,11411.57,8535.2
1390050.8838,2734.52,11585.43,33149.01,31938.94,24153.14,27342.37,11516.95,8520.94
1390050.8858,3073.84,11654.76,33145.0,31927.83,24138.79,27358.54,11624.24,8504.96
1390050.8878,3118.47,11699.11,33131.08,31912.14,24129.54,27340.08,11685.56,8490.75
1390050.8898,2770.71,11702.59,33121.3,31909.85,24131.35,27307.99,11659.81,8490.18
1390050.8918,2185.63,11633.16,33114.1,31910.61,24146.27,27261.78,11547.04,8502.39
1390050.8938,1767.59,11539.51,33122.26,31923.3,24168.92,27238.99,11423.92,8524.61
1390050.8958,1794.29,11511.23,33145.96,31947.81,24188.57,27250.96,11372.71,8545.11
1390050.8978,2124.26,11513.62,33156.73,31954.53,24186.38,27278.09,11397.27,8542.59
1390050.8998,2577.5,11553.19,33156.78,31951.96,24174.31,27307.61,11475.71,8525.9
1390050.9018,2975.89,11614.75,33140.71,31931.45,24147.08,27330.83,11574.56,8500.96
1390050.9038,3144.46,11678.98,33122.73,31908.85,24127.34,27347.09,11662.91,8487.8
1390050.9058,2941.61,11706.64,33117.01,31906.42,24125.2,27337.94,11683.89,8484.65
1390050.9078,2400.3,11668.35,33116.01,31907.28,24134.54,27290.97,11598.06,8494.04
1390050.9098,1868.63,11564.35,33120.73,31908.75,24157.62,27248.91,11456.73,8509.4
1390050.9118,1725.72,11495.78,33127.69,31919.29,24170.21,27228.98,11357.83,8520.94
1390050.9138,1968.57,11488.39,33138.47,31930.4,24173.5,27243.62,11355.59,8527.52
1390050.9158,2410.08,11530.11,33150.77,31938.94,24168.68,27280.24,11432.41,8523.13
1390050.9178,2846.81,11587.76,33139.85,31922.15,24143.7,27303.75,11531.26,8499.43
1390050.9198,3113.94,11654.28,33120.68,31899.74,24115.14,27319.86,11630.25,8472.92
1390050.9218,3030.16,11693.72,33109.76,31892.97,24107.65,27320.44,11677.22,8466.29
1390050.9238,2597.09,11685.37,33103.76,31897.21,24118.24,27289.49,11625.39,8474.78
1390050.9258,1995.47,11592.82,33101.99,31901.98,24136.5,27249.53,11492.16,8492.42
1390050.9278,1727.53,11520.29,33121.83,31927.4,24164.11,27241.38,11390.83,8515.55
1390050.9298,1862.91,11493.87,33137.66,31940.94,24176.51,27255.44,11360.31,8523.66
1390050.9318,2268.65,11514.81,33140.62,31942.8,24168.11,27286.25,11410.48,8520.79
1390050.9338,2711.2,11571.6,33138.85,31937.94,24154.81,27315.43,11510.18,8509.3
1390050.9358,3080.13,11658.81,33139.38,31938.18,24145.8,27337.7,11628.3,8501.82
1390050.9378,3110.36,11705.45,33125.45,31926.35,24131.21,27339.94,11689.09,8494.38
1390050.9398,2791.64,11707.4,33104.47,31913.19,24114.18,27304.8,11665.58,8478.69
1390050.9418,2168.56,11621.95,33096.03,31904.84,24123.39,27258.07,11540.7,8482.84
1390050.9438,1763.01,11526.68,33102.9,31911.62,24143.27,27223.26,11403.94,8498.0
1390050.9458,1749.9,11479.05,33113.91,31923.68,24154.48,27224.45,11341.62,8510.02
1390050.9478,2111.24,11495.5,33128.17,31932.79,24158.34,27257.68,11379.0,8515.17
1390050.9498,2551.03,11543.61,33133.65,31933.88,24153.76,27293.21,11462.98,8508.87
1390050.9518,2989.63,11620.57,33130.7,31923.58,24134.83,27327.92,11577.37,8493.57
1390050.9538,3132.87,11681.51,33125.5,31915.14,24122.1,27351.14,11670.92,8488.08
1390050.9558,2949.91,11712.08,33111.34,31906.7,24113.04,27334.12,11684.71,8478.31
1390050.9578,2386.38,11667.54,33103.14,31905.99,24123.96,27288.3,11595.16,8483.7
1390050.9598,1882.98,11572.08,33109.72,31917.48,24144.41,27255.01,11466.89,8501.29
1390050.9618,1725.58,11504.84,33121.16,31930.83,24160.34,27244.38,11377.24,8517.79
1390050.9638,1987.12,11490.87,33127.5,31930.36,24160.67,27256.64,11372.23,8520.37
1390050.9658,2398.73,11514.09,33127.12,31915.81,24149.42,27276.47,11430.69,8510.78
1390050.9678,2854.01,11580.04,33127.22,31907.94,24132.83,27309.33,11533.55,8494.09
1390050.9698,3106.31,11652.8,33118.39,31895.98,24117.66,27331.88,11638.79,8479.6
1390050.9718,3048.23,11695.58,33110.81,31893.92,24112.66,27330.07,11684.8,8472.68
1390050.9738,2598.19,11685.9,33106.47,31896.45,24118.14,27300.27,11634.92,8479.74
1390050.9758,2011.01,11587.53,33098.18,31896.31,24129.49,27258.16,11502.65,8490.23
1390050.9778,1708.46,11497.21,33101.85,31902.84,24141.46,27231.65,11386.35,8502.77
1390050.9798,1848.51,11472.99,33118.78,31921.58,24156.72,27242.71,11353.54,8515.65
1390050.9818,2248.43,11506.23,33132.84,31930.36,24161.39,27279.38,11407.9,8520.75
1390050.9838,2711.82,11566.35,33137.23,31927.78,24154.76,27315.0,11509.71,8512.55
1390050.9858,3059.24,11637.74,33124.21,31906.99,24129.92,27337.46,11616.14,8485.46
1390050.9878,3094.39,11678.55,33106.28,31896.98,24114.09,27345.71,11681.61,8470.92
1390050.9898,2778.63,11697.06,33100.51,31898.88,24115.71,27323.87,11664.11,8471.39
1390050.9918,2183.91,11633.3,33101.94,31912.71,24132.21,27279.48,11557.82,8488.37
1390050.9938,1775.36,11543.51,33110.77,31931.36,24152.38,27233.89,11431.65,8510.97
1390050.9958,1767.35,11498.74,33131.6,31950.05,24174.65,27248.34,11370.23,8532.1
1390050.9978,2117.44,11513.71,33147.34,31950.19,24177.74,27280.14,11395.98,8533.05
1390050.9998,2551.84,11548.71,33141.76,31937.27,24160.77,27304.8,11473.7,8516.03
1390051.0018,2976.85,11625.15,33132.75,31921.63,24140.17,27324.73,11581.14,8497.14
1390051.0038,3118.18,11682.94,33123.74,31906.08,24126.39,27339.46,11669.45,8482.36
1390051.0058,2934.17,11708.12,33110.1,31895.78,24113.37,27316.57,11682.56,8469.11
1390051.0078,2370.79,11657.05,33106.76,31896.5,24123.91,27272.37,11591.72,8481.74
1390051.0098,1875.35,11569.98,33117.68,31911.81,24147.13,27246.91,11466.89,8504.58
1390051.0118,1695.39,11489.77,33122.45,31922.49,24158.24,27227.45,11365.61,8513.69
1390051.0138,1962.38,11480.86,33126.74,31929.69,24157.67,27241.66,11356.74,8514.74
1390051.0158,2377.37,11516.1,33134.08,31932.55,24156.53,27279.76,11426.74,8514.93
1390051.0178,2855.83,11589.67,33127.41,31924.92,24136.55,27314.0,11536.5,8496.57
1390051.0198,3092.24,11653.81,33120.45,31905.85,24124.43,27339.65,11644.51,8483.98
1390051.0218,3049.37,11701.39,33110.96,31899.12,24115.76,27339.8,11698.15,8477.07
1390051.0238,2567.43,11676.36,33100.04,31889.3,24115.66,27297.74,11633.92,8472.97
1390051.0258,2011.92,11590.58,33098.51,31894.83,24129.92,27251.06,11499.36,8486.08
1390051.0278,1691.96,11500.65,33107.43,31907.13,24146.23,27221.4,11378.43,8503.77
1390051.0298,1851.61,11479.43,33123.45,31925.01,24156.76,27235.75,11351.49,8513.02
1390051.0318,2225.26,11497.4,33132.03,31925.83,24156.38,27268.03,11403.13,8514.45
1390051.0338,2722.55,11564.69,33136.94,31923.25,24145.94,27303.89,11509.28,8505.15
1390051.0358,3048.09,11634.54,33127.36,31902.32,24129.58,27326.4,11613.04,8485.94
1390051.0378,3112.75,11685.47,33117.82,31892.64,24118.33,27331.31,11678.03,8470.97
1390051.0398,2763.7,11685.04,33103.42,31887.44,24109.94,27300.5,11651.71,8462.48
1390051.0418,2199.79,11622.38,33104.71,31903.7,24126.72,27263.79,11543.32,8477.93
1390051.0438,1763.25,11529.88,33113.67,31923.39,24148.28,27238.18,11419.68,8496.48
1390051.0458,1772.45,11488.68,33131.56,31945.57,24162.92,27240.71,11357.07,8506.87
1390051.0478,2096.51,11500.36,33147.15,31953.0,24169.5,27273.28,11384.49,8516.69
1390051.0498,2573.16,11557.39,33162.41,31954.63,24172.12,27318.19,11481.86,8523.37
1390051.0518,2977.23,11627.01,33151.82,31932.55,24148.42,27334.6,11583.28,8504.96
1390051.0538,3129.86,11675.6,33130.84,31911.33,24122.38,27324.49,11656.67,8484.41
1390051.0558,2928.16,11705.92,33118.3,31909.37,24117.76,27311.71,11676.07,8480.69
1390051.0578,2394.72,11665.39,33115.01,31913.14,24130.97,27280.48,11593.2,8493.0
1390051.0598,1873.92,11572.98,33118.68,31919.91,24153.52,27244.9,11462.12,8515.07
1390051.0618,1714.9,11500.22,33133.08,31930.88,24168.83,27233.89,11369.9,8526.85
1390051.0638,1963.62,11490.06,33146.15,31936.12,24172.98,27251.29,11363.17,8529.71
1390051.0658,2390.62,11522.06,33153.01,31936.03,24169.59,27284.1,11428.02,8525.18
1390051.0678,2855.68,11590.67,33147.67,31926.92,24154.24,27317.38,11537.12,8511.21
1390051.0698,3104.83,11656.24,33137.23,31912.14,24140.31,27339.89,11639.64,8496.91
1390051.0718,3041.7,11698.15,33125.12,31903.22,24128.2,27335.07,11686.09,8485.08
1390051.0738,2586.22,11676.5,33112.48,31898.55,24124.29,27289.68,11620.81,8483.55
1390051.0758,2016.93,11595.97,33118.3,31909.04,24143.51,27248.15,11495.02,8503.01
1390051.0778,1721.81,11516.91,33143.81,31941.08,24176.12,27236.27,11388.3,8536.67
1390051.0798,1869.87,11499.22,33165.13,31963.69,24191.29,27248.67,11356.98,8551.46
1390051.0818,2247.76,11510.09,33166.41,31962.49,24185.04,27275.42,11401.32,8541.35
1390051.0838,2726.22,11571.12,33161.98,31953.15,24165.11,27306.75,11498.31,8520.65
1390051.0858,3061.82,11642.98,33151.15,31934.22,24146.13,27328.4,11601.78,8502.34
1390051.0878,3116.61,11696.53,33143.19,31922.73,24131.11,27330.78,11673.64,8492.14
1390051.0898,2783.49,11703.06,33134.42,31917.72,24129.25,27301.22,11653.28,8491.95
1390051.0918,2208.38,11634.97,33128.55,31915.48,24140.93,27260.31,11542.18,8504.34
1390051.0938,1777.32,11541.89,33139.8,31934.55,24164.97,27238.9,11414.0,8528.76
1390051.0958,1776.5,11500.07,33152.16,31950.81,24179.08,27243.43,11350.78,8539.39
1390051.0978,2099.09,11496.21,33156.73,31946.71,24175.6,27275.28,11376.19,8533.62
1390051.0998,2566.96,11540.89,33154.06,31932.74,24159.96,27301.36,11462.88,8519.22
1390051.1018,2975.46,11607.08,33144.67,31914.67,24138.5,27328.83,11569.93,8498.29
1390051.1038,3140.02,11672.88,33130.17,31903.32,24127.3,27348.62,11662.39,8485.51
1390051.1058,2931.64,11699.39,33117.2,31908.71,24124.77,27329.59,11676.69,8479.21
1390051.1078,2402.83,11658.19,33108.72,31910.76,24131.44,27286.96,11589.34,8484.75
1390051.1098,1878.79,11564.69,33119.16,31922.87,24157.19,27248.34,11461.78,8510.73
1390051.1118,1738.36,11503.94,33134.89,31940.18,24174.84,27237.94,11377.15,8530.62
1390051.1138,1969.29,11484.05,33141.52,31940.85,24174.84,27245.38,11357.98,8532.76
1390051.1158,2410.22,11517.53,33142.86,31939.89,24164.68,27274.42,11423.45,8524.04
1390051.1178,2857.02,11578.99,33137.47,31927.78,24146.08,27308.18,11526.87,8503.49
1390051.1198,3143.31,11662.39,33136.04,31920.48,24138.93,27340.08,11643.84,8493.85
1390051.1218,3055.33,11697.96,33121.78,31911.38,24127.2,27331.83,11688.66,8486.27
1390051.1238,2614.31,11683.04,33111.48,31905.51,24123.72,27293.88,11628.53,8486.08
1390051.1258,2016.59,11583.38,33105.28,31901.17,24134.88,27248.15,11493.3,8494.52
1390051.1278,1729.25,11504.65,33118.16,31919.39,24154.0,27224.35,11376.67,8512.07
1390051.1298,1840.21,11475.23,33131.41,31932.88,24163.58,27233.56,11339.19,8521.41
1390051.1318,2246.67,11502.84,33142.81,31942.18,24165.78,27267.22,11391.88,8524.61
1390051.1338,2709.63,11568.36,33148.44,31937.08,24159.34,27305.18,11492.73,8519.75
1390051.1358,3093.91,11655.38,33151.58,31932.26,24149.75,27339.6,11614.66,8510.73
1390051.1378,3116.75,11692.48,33133.46,31915.38,24133.35,27340.56,11681.61,8492.47
1390051.1398,2804.33,11698.39,33121.35,31913.9,24128.3,27313.14,11661.24,8487.23
1390051.1418,2203.04,11626.67,33116.15,31911.76,24137.36,27272.42,11546.8,8495.09
1390051.1438,1793.53,11534.88,33124.12,31921.39,24153.28,27247.58,11421.54,8512.45
1390051.1458,1773.83,11493.06,33145.0,31945.28,24175.31,27255.54,11358.45,8533.86
1390051.1478,2121.02,11504.84,33160.36,31953.05,24181.18,27280.52,11384.58,8539.01
1390051.1498,2558.61,11550.24,33165.6,31947.28,24173.5,27306.08,11470.03,8531.81
1390051.1518,2992.06,11622.67,33157.97,31937.41,24154.38,27335.12,11580.23,8515.65
1390051.1538,3138.73,11683.85,33146.1,31925.97,24143.03,27353.43,11673.74,8502.15
1390051.1558,2962.45,11718.08,33139.38,31928.45,24139.79,27338.22,11696.53,8499.81
1390051.1578,2403.55,11665.01,33124.26,31918.96,24139.84,27285.96,11603.02,8499.29
1390051.1598,1890.95,11565.73,33128.27,31921.82,24155.91,27246.38,11461.31,8513.45
1390051.1618,1727.3,11501.93,33148.72,31942.56,24180.18,27238.18,11370.52,8535.29
1390051.1638,1983.36,11495.78,33163.98,31959.82,24191.43,27267.13,11375.62,8547.31
1390051.1658,2396.97,11528.68,33159.16,31950.67,24181.32,27296.74,11440.8,8536.77
1390051.1678,2860.07,11592.68,33149.68,31936.55,24160.29,27318.48,11540.41,8517.55
1390051.1698,3108.79,11652.38,33130.46,31910.85,24133.73,27328.78,11634.78,8492.18
1390051.1718,3046.7,11691.95,33120.11,31907.47,24124.86,27322.25,11681.75,8485.27
1390051.1738,2610.35,11687.9,33119.59,31920.01,24133.97,27298.12,11638.17,8491.71
1390051.1758,2036.86,11603.5,33127.03,31934.41,24158.39,27262.64,11514.0,8510.64
1390051.1778,1739.6,11524.54,33141.24,31952.34,24179.37,27238.42,11403.51,8532.38
1390051.1798,1861.1,11500.74,33160.64,31970.31,24193.81,27252.96,11369.04,8546.97
1390051.1818,2264.17,11531.88,33172.66,31969.12,24194.77,27292.92,11424.35,8548.93
1390051.1838,2714.92,11579.71,33161.74,31949.09,24170.78,27313.9,11508.51,8528.23
1390051.1858,3070.07,11650.18,33139.9,31922.73,24139.98,27328.97,11610.99,8504.63
1390051.1878,3103.69,11692.0,33123.16,31907.61,24123.19,27334.07,11676.5,8490.18
1390051.1898,2789.55,11703.68,33109.72,31906.8,24118.95,27308.18,11660.15,8485.27
1390051.1918,2190.26,11635.92,33110.05,31917.86,24135.97,27273.28,11552.34,8501.96
1390051.1938,1786.66,11550.67,33124.88,31937.98,24165.49,27247.86,11429.93,8528.09
1390051.1958,1766.97,11499.36,33139.42,31950.33,24180.8,27249.29,11363.41,8542.44
1390051.1978,2111.63,11506.13,33148.58,31951.81,24179.99,27276.47,11387.73,8541.78
1390051.1998,2545.26,11542.8,33149.34,31946.04,24168.97,27309.37,11467.27,8527.66
1390051.2018,2986.29,11623.53,33148.2,31933.98,24152.23,27336.12,11584.57,8511.5
1390051.2038,3130.87,11678.41,33136.37,31914.86,24139.03,27347.71,11673.88,8496.52
1390051.2058,2956.25,11708.45,33121.45,31910.95,24129.54,27326.01,11689.66,8487.56
1390051.2078,2388.62,11656.24,33110.57,31902.98,24132.68,27275.76,11593.96,8490.85
1390051.2098,1892.61,11564.69,33117.54,31913.57,24153.38,27239.76,11461.55,8509.06
1390051.2118,1725.24,11503.75,33142.76,31942.94,24182.23,27241.38,11377.77,8538.01
1390051.2138,1992.32,11505.37,33161.69,31956.01,24191.24,27264.65,11379.24,8547.64
1390051.2158,2394.72,11532.16,33167.65,31951.24,24183.42,27294.59,11438.56,8541.3
1390051.2178,2885.25,11609.65,33172.28,31949.86,24170.21,27331.55,11554.05,8531.52
1390051.2198,3126.05,11669.68,33152.01,31927.11,24145.46,27349.67,11650.75,8510.26
1390051.2218,3073.17,11703.64,33129.03,31905.8,24124.77,27334.65,11691.0,8490.47
1390051.2238,2597.05,11677.27,33113.48,31896.07,24125.86,27289.2,11628.34,8487.75
1390051.2258,2049.4,11604.6,33123.54,31914.0,24152.95,27257.49,11508.56,8510.45
1390051.2278,1731.21,11526.82,33142.24,31936.12,24180.7,27245.57,11398.98,8534.24
1390051.2298,1891.66,11513.19,33165.17,31956.49,24193.1,27263.79,11371.23,8547.97
1390051.2318,2252.01,11528.4,33168.94,31957.68,24188.38,27291.97,11416.58,8545.83
1390051.2338,2722.22,11581.47,33157.54,31944.33,24167.02,27303.94,11502.41,8522.18
1390051.2358,3052.62,11651.18,33144.57,31929.69,24147.61,27339.13,11613.18,8499.81
1390051.2378,3123.43,11698.49,33130.41,31922.73,24134.07,27348.9,11683.61,8484.03
1390051.2398,2794.12,11714.79,33122.97,31924.63,24131.68,27322.49,11665.54,8484.08
1390051.2418,2227.74,11655.28,33118.92,31930.97,24144.56,27275.04,11554.15,8499.29
1390051.2438,1783.51,11556.48,33120.92,31928.35,24154.95,27234.41,11421.87,8515.98
1390051.2458,1784.04,11508.8,33132.41,31942.66,24167.54,27235.89,11356.78,8531.81
1390051.2478,2095.99,11508.04,33138.57,31946.81,24167.21,27257.06,11374.86,8532.38
1390051.2498,2540.73,11542.18,33130.84,31934.5,24151.95,27282.05,11449.15,8510.45
1390051.2518,2949.57,11611.37,33122.97,31918.05,24134.54,27309.66,11559.2,8488.27
1390051.2538,3135.97,11684.04,33125.93,31921.2,24131.44,27340.7,11663.15,8486.13
1390051.2558,2952.77,11719.71,33122.02,31918.53,24129.3,27336.51,11692.1,8486.46
1390051.2578,2419.57,11672.88,33117.39,31914.33,24136.12,27288.06,11599.59,8491.28
1390051.2598,1893.19,11573.27,33117.82,31916.1,24153.09,27235.99,11461.93,8509.73
1390051.2618,1728.25,11503.89,33129.74,31933.41,24169.64,27224.16,11365.46,8528.33
1390051.2638,1967.76,11494.3,33136.47,31934.93,24168.68,27244.14,11358.64,8528.42
1390051.2658,2395.68,11533.98,33152.82,31942.18,24172.12,27291.44,11433.75,8532.57
1390051.2678,2862.12,11607.31,33152.54,31933.5,24157.43,27329.35,11546.9,8518.41
1390051.2698,3111.6,11660.53,33131.94,31910.47,24132.68,27342.85,11639.17,8489.9
1390051.2718,3058.67,11704.92,33119.49,31902.98,24120.14,27339.51,11686.99,8479.83
1390051.2738,2615.07,11692.67,33113.63,31904.94,24124.39,27305.37,11633.45,8483.94
1390051.2758,2044.96,11608.55,33108.76,31907.18,24137.45,27262.98,11508.04,8492.52
1390051.2778,1737.74,11524.87,33121.16,31923.35,24159.34,27248.43,11398.65,8513.79
1390051.2798,1877.12,11506.7,33136.42,31941.13,24172.6,27257.02,11365.94,8527.66
1390051.2818,2237.75,11515.52,33140.85,31938.65,24168.92,27274.61,11395.74,8524.09
1390051.2838,2706.0,11570.12,33135.32,31927.64,24151.19,27303.27,11488.82,8506.97
1390051.2858,3038.55,11635.92,33124.36,31914.29,24131.83,27322.34,11592.34,8488.7
1390051.2878,3107.36,11688.28,33115.58,31905.08,24122.15,27326.78,11664.63,8479.41
1390051.2898,2784.82,11698.44,33108.95,31905.51,24120.72,27301.65,11647.65,8480.07
1390051.2918,2216.96,11637.78,33106.47,31909.14,24135.5,27259.78,11540.89,8492.14
1390051.2938,1781.65,11546.8,33121.21,31934.36,24163.39,27239.09,11417.96,8516.65
1390051.2958,1786.9,11508.9,33142.86,31956.63,24182.37,27245.48,11357.55,8533.91
1390051.2978,2098.75,11509.23,33154.44,31953.96,24183.42,27273.23,11379.96,8532.29
1390051.2998,2552.18,11550.14,33149.25,31939.89,24166.63,27304.89,11467.27,8516.46
1390051.3018,2953.67,11616.04,33141.33,31923.97,24146.99,27332.21,11577.23,8497.67
1390051.3038,3125.81,11670.5,33126.6,31911.42,24128.11,27335.22,11660.05,8478.55
1390051.3058,2931.74,11697.15,33116.06,31911.09,24120.38,27325.63,11676.27,8473.92
1390051.3078,2422.91,11665.54,33116.63,31918.1,24132.3,27296.74,11601.21,8489.99
1390051.3098,1900.24,11575.18,33126.41,31926.21,24156.24,27271.27,11474.09,8514.36
1390051.3118,1762.25,11522.44,33149.34,31952.81,24180.51,27267.03,11385.01,8539.87
1390051.3138,1990.65,11514.86,33164.55,31963.97,24193.48,27286.63,11380.01,8551.69
1390051.3158,2435.64,11559.49,33174.57,31967.98,24193.72,27332.6,11468.41,8550.5
1390051.3178,2874.52,11623.91,33170.99,31959.44,24177.94,27358.68,11573.7,8535.24
1390051.3198,3143.02,11686.18,33151.63,31935.36,24154.71,27369.22,11662.72,8511.07
1390051.3218,3071.83,11719.18,33137.9,31922.06,24141.22,27359.54,11701.54,8498.48
1390051.3238,2649.69,11711.55,33133.56,31924.2,24143.41,27325.44,11656.71,8498.24
1390051.3258,2059.89,11627.48,33133.03,31923.01,24159.24,27284.53,11529.88,8510.73
1390051.3278,1772.31,11550.67,33141.66,31933.69,24175.84,27260.83,11414.1,8524.75
1390051.3298,1876.16,11516.29,33149.63,31940.23,24182.04,27264.31,11370.8,8531.48
1390051.3318,2264.74,11533.36,33156.54,31944.33,24178.79,27292.06,11413.77,8530.52
1390051.3338,2712.35,11588.0,33157.35,31940.37,24168.54,27325.59,11509.99,8520.89
1390051.3358,3073.98,11655.33,33140.85,31920.87,24144.13,27344.61,11611.51,8498.96
1390051.3378,3106.26,11691.38,33119.01,31897.69,24120.72,27340.27,11668.97,8475.5
1390051.3398,2803.56,11699.01,33105.81,31897.98,24112.28,27311.57,11648.94,8470.58
1390051.3418,2217.72,11638.45,33106.81,31909.23,24128.73,27271.32,11542.85,8487.03
1390051.3438,1811.41,11554.05,33119.97,31927.11,24154.09,27248.43,11424.73,8506.59
1390051.3458,1781.65,11503.75,33129.55,31942.75,24168.4,27241.19,11358.55,8518.08
1390051.3478,2109.91,11502.41,33131.32,31943.85,24163.2,27262.26,11372.38,8515.03
1390051.3498,2542.88,11548.0,33139.19,31939.94,24157.15,27300.17,11458.11,8509.78
1390051.3518,2973.84,11626.1,33136.13,31928.21,24142.13,27332.79,11574.94,8496.48
1390051.3538,3119.76,11678.7,33120.21,31902.94,24123.72,27352.29,11661.58,8477.12
1390051.3558,2949.52,11704.45,33107.33,31892.83,24115.52,27337.13,11681.08,8467.48
1390051.3578,2407.69,11664.39,33099.23,31893.16,24120.14,27282.0,11597.3,8473.97
1390051.3598,1894.81,11571.55,33103.76,31905.89,24139.22,27240.95,11467.36,8492.66
1390051.3618,1725.39,11505.56,33119.97,31922.73,24157.57,27240.09,11382.06,8509.59
1390051.3638,1969.96,11492.44,33132.37,31928.3,24162.49,27262.93,11378.19,8512.4
1390051.3658,2376.51,11519.62,33134.85,31919.91,24151.28,27292.21,11436.61,8501.44
1390051.3678,2833.37,11586.95,33135.32,31915.33,24137.88,27324.54,11537.93,8487.75
1390051.3698,3096.53,11658.67,33125.74,31905.08,24126.2,27343.75,11640.17,8475.35
1390051.3718,3039.88,11694.67,33108.81,31896.79,24113.9,27340.84,11688.19,8464.43
1390051.3738,2600.15,11677.7,33088.21,31888.49,24106.55,27305.61,11637.98,8460.19
1390051.3758,2016.07,11582.76,33079.25,31884.96,24115.33,27256.54,11496.69,8470.97
1390051.3778,1720.43,11505.61,33090.31,31898.84,24134.02,27230.31,11383.49,8493.04
1390051.3798,1841.02,11481.57,33112.1,31918.29,24151.47,27234.27,11353.73,8505.92
1390051.3818,2231.5,11511.61,33128.41,31929.21,24157.38,27275.52,11408.81,8507.3
1390051.3838,2690.27,11572.74,33137.61,31931.88,24154.24,27321.72,11510.42,8504.77
1390051.3858,3058.24,11646.65,33126.55,31911.38,24133.3,27343.9,11619.86,8485.65
1390051.3878,3101.21,11687.47,33108.43,31895.55,24114.04,27336.55,11680.18,8467.96
1390051.3898,2801.23,11700.25,33096.51,31892.11,24108.08,27305.42,11659.72,8460.48
1390051.3918,2216.24,11636.59,33101.47,31907.04,24126.44,27273.71,11552.86,8481.22
1390051.3938,1811.36,11559.3,33117.87,31928.97,24153.81,27247.05,11433.51,8507.25
1390051.3958,1764.44,11497.59,33124.21,31933.6,24160.34,27236.99,11355.78,8511.21
1390051.3978,2095.99,11498.93,33127.5,31925.73,24155.57,27257.35,11378.91,8505.92
1390051.3998,2519.89,11536.22,33130.17,31921.2,24148.47,27287.87,11454.58,8500.24
1390051.4018,2950.24,11607.46,33115.68,31910.66,24124.1,27307.42,11561.06,8476.88
1390051.4038,3092.38,11663.92,33105.66,31900.89,24112.13,27327.45,11651.9,8465.77
1390051.4058,2937.84,11699.39,33096.22,31896.69,24104.07,27316.81,11674.69,8456.76
1390051.4078,2387.91,11657.62,33093.12,31902.7,24114.9,27270.51,11580.37,8469.44
1390051.4098,1899.39,11577.32,33104.47,31918.29,24136.74,27241.52,11454.73,8494.85
1390051.4118,1716.8,11507.13,33118.97,31929.83,24157.48,27231.84,11357.36,8513.45
1390051.4138,1971.86,11500.93,33131.22,31932.88,24162.58,27247.15,11356.36,8517.74
1390051.4158,2362.2,11524.39,33136.32,31927.78,24156.72,27278.62,11421.06,8515.07
1390051.4178,2844.24,11596.82,33136.66,31928.02,24145.84,27316.24,11532.83,8503.91
1390051.4198,3089.48,11657.43,33125.55,31909.14,24131.25,27334.65,11634.54,8487.13
1390051.4218,3055.95,11701.68,33112.86,31903.37,24118.52,27326.06,11682.7,8475.64
1390051.4238,2596.28,11677.93,33092.93,31894.12,24110.37,27282.72,11619.28,8469.01
1390051.4258,2047.97,11602.02,33099.23,31906.66,24131.44,27248.67,11505.08,8488.23
1390051.4278,1729.92,11521.63,33114.53,31922.96,24157.1,27232.08,11397.6,8511.93
1390051.4298,1867.72,11497.31,33127.22,31939.46,24165.54,27241.38,11355.93,8517.31
1390051.4318,2217.01,11505.08,33130.36,31936.74,24160.67,27269.32,11397.6,8511.21
1390051.4338,2696.04,11566.45,33136.9,31933.6,24152.33,27306.37,11499.6,8503.87
1390051.4358,3040.6,11649.42,33137.95,31925.25,24142.46,27339.37,11615.95,8492.28
1390051.4378,3119.14,11706.12,33135.89,31922.77,24136.74,27346.76,11686.23,8488.18
1390051.4398,2788.26,11702.54,33116.01,31910.47,24123.1,27309.13,11649.42,8477.45
1390051.4418,2217.44,11631.06,33104.23,31905.85,24129.87,27264.5,11530.69,8483.08
1390051.4438,1780.99,11541.18,33111.86,31917.62,24150.85,27235.03,11407.95,8503.01
1390051.4458,1772.12,11495.31,33127.26,31937.51,24167.16,27228.69,11342.34,8520.79
1390051.4478,2080.01,11495.31,33130.27,31930.5,24161.87,27245.57,11358.88,8519.17
1390051.4498,2529.62,11532.69,33132.89,31922.58,24150.23,27276.57,11437.85,8506.2
1390051.4518,2941.18,11600.31,33125.83,31904.42,24125.44,27298.02,11541.27,8482.27
1390051.4538,3121.76,11661.96,33121.07,31894.02,24113.42,27319.34,11633.35,8468.72
1390051.4558,2943.28,11696.24,33114.63,31891.54,24109.65,27311.71,11662.96,8463.81
1390051.4578,2421.28,11661.44,33115.82,31903.65,24124.43,27284.91,11590.63,8480.79
1390051.4598,1902.63,11572.79,33120.3,31918.24,24145.13,27246.24,11458.06,8501.48
1390051.4618,1728.11,11496.69,33125.83,31936.98,24158.81,27221.64,11351.4,8514.93
1390051.4638,1967.48,11488.11,33132.7,31945.66,24165.35,27242.95,11347.1,8523.42
1390051.4658,2380.66,11519.96,33141.81,31945.09,24164.73,27281.43,11414.43,8522.13
1390051.4678,2853.49,11598.4,33145.48,31941.18,24154.05,27323.11,11531.5,8508.35
1390051.4698,3120.9,11670.88,33140.81,31936.46,24144.75,27339.41,11634.21,8496.91
1390051.4718,3080.8,11714.65,33126.02,31926.49,24130.16,27333.84,11683.13,8484.56
1390051.4738,2635.19,11694.67,33113.91,31922.3,24124.34,27293.73,11628.39,8482.5
1390051.4758,2054.98,11616.52,33118.78,31933.55,24143.89,27256.68,11504.13,8503.63
1390051.4778,1729.49,11528.78,33132.27,31947.19,24166.78,27245.43,11391.88,8526.71
1390051.4798,1852.08,11494.3,33136.23,31942.04,24168.83,27253.39,11355.97,8524.9
1390051.4818,2217.87,11500.26,33145.81,31938.6,24172.31,27276.76,11396.08,8526.37
1390051.4838,2684.07,11550.57,33142.52,31927.83,24155.76,27290.63,11487.63,8507.68
1390051.4858,3024.86,11621.33,33130.03,31912.95,24136.5,27316.96,11597.68,8485.75
1390051.4878,3097.63,11673.5,33113.63,31897.02,24116.42,27323.68,11666.11,8467.82
1390051.4898,2777.96,11683.51,33109.1,31901.89,24116.66,27302.36,11653.23,8467.68
1390051.4918,2206.23,11623.19,33107.86,31912.71,24131.78,27265.55,11548.85,8481.22
1390051.4938,1760.15,11522.87,33114.1,31927.35,24151.76,27238.23,11417.44,8498.96
1390051.4958,1760.05,11479.52,33129.79,31943.33,24167.45,27234.41,11350.82,8513.93
1390051.4978,2066.42,11482.53,33140.85,31949.29,24169.4,27257.92,11371.85,8517.84
1390051.4998,2521.9,11527.44,33141.52,31944.56,24156.24,27285.72,11449.05,8508.73
1390051.5018,2938.03,11599.49,33133.42,31931.79,24136.78,27317.43,11560.58,8490.13
1390051.5038,3128.15,11669.02,33117.92,31919.34,24117.9,27338.84,11663.87,8472.83
1390051.5058,2935.17,11695.24,33105.95,31907.51,24110.22,27319.1,11666.68,8467.1
1390051.5078,2422.71,11670.07,33112.1,31915.05,24130.78,27287.06,11592.39,8486.22
1390051.5098,1886.51,11576.75,33117.87,31927.02,24149.8,27249.96,11462.26,8505.63
1390051.5118,1728.53,11504.46,33125.26,31940.42,24158.86,27232.51,11360.84,8516.74
1390051.5138,1954.41,11491.59,33143.33,31956.96,24169.97,27255.59,11353.16,8527.71
1390051.5158,2392.1,11524.87,33149.15,31952.67,24162.25,27289.11,11425.31,8520.32
1390051.5178,2831.41,11587.53,33146.34,31943.61,24152.23,27319.34,11525.73,8508.59
1390051.5198,3117.85,11658.34,33132.99,31926.92,24130.39,27337.94,11626.82,8485.65
1390051.5218,3044.7,11692.53,33113.1,31915.0,24114.37,27331.5,11669.26,8467.72
1390051.5238,2626.13,11687.47,33105.66,31919.48,24118.33,27300.6,11627.63,8473.59
1390051.5258,2024.27,11595.16,33103.9,31914.29,24134.54,27250.87,11498.5,8489.47
1390051.5278,1717.95,11505.61,33110.1,31921.49,24153.38,27219.3,11375.62,8504.58
1390051.5298,1820.71,11473.37,33125.36,31933.12,24167.49,27227.31,11336.09,8516.5
1390051.5318,2230.79,11505.08,33146.24,31945.42,24172.4,27266.65,11395.79,8526.95
1390051.5338,2683.07,11566.78,33151.87,31942.37,24160.77,27298.22,11485.53,8517.36
1390051.5358,3060.15,11644.65,33143.48,31930.02,24142.6,27326.97,11599.49,8497.62
1390051.5378,3114.13,11690.0,33125.93,31916.48,24130.59,27336.93,11669.11,8484.03
1390051.5398,2819.59,11703.97,33114.63,31915.95,24126.34,27312.47,11652.38,8483.22
1390051.5418,2216.96,11636.5,33107.71,31907.75,24133.83,27272.75,11542.7,8489.61
1390051.5438,1790.71,11541.99,33114.06,31919.39,24155.91,27246.76,11417.34,8510.35
1390051.5458,1750.37,11486.77,33128.89,31932.83,24169.73,27230.55,11342.43,8521.61
1390051.5478,2080.58,11488.49,33142.24,31940.13,24170.59,27241.04,11358.79,8523.61
1390051.5498,2522.8,11534.64,33142.24,31937.41,24160.1,27279.28,11442.71,8515.45
1390051.5518,2948.57,11607.7,33128.93,31924.25,24138.41,27310.66,11558.44,8493.71
1390051.5538,3111.65,11665.73,33113.01,31907.18,24120.76,27325.82,11649.37,8478.31
1390051.5558,2945.23,11692.24,33103.85,31904.65,24109.75,27307.13,11660.05,8467.06
1390051.5578,2407.03,11650.09,33096.27,31907.8,24115.42,27258.64,11572.51,8472.35
1390051.5598,1886.42,11561.3,33107.33,31927.26,24140.89,27230.65,11442.42,8496.24
1390051.5618,1717.81,11505.27,33130.17,31954.1,24171.64,27234.27,11358.98,8524.18
1390051.5638,1962.95,11500.55,33147.39,31959.82,24180.61,27261.12,11357.64,8536.05
1390051.5658,2384.76,11536.98,33154.83,31955.53,24175.69,27294.97,11426.16,8532.72
1390051.5678,2840.66,11603.64,33148.1,31945.47,24155.67,27319.39,11529.4,8512.21
1390051.5698,3110.12,11672.36,33128.55,31924.68,24130.49,27333.84,11630.92,8489.28
1390051.5718,3053.0,11705.11,33110.67,31912.47,24119.33,27320.67,11672.26,8480.98
1390051.5738,2625.8,11695.2,33102.47,31912.52,24123.1,27285.91,11625.1,8483.84
1390051.5758,2042.48,11610.65,33104.95,31919.53,24139.12,27244.86,11496.74,8498.38
1390051.5778,1732.02,11530.93,33120.59,31941.66,24163.01,27225.21,11377.1,8522.23
1390051.5798,1842.12,11498.74,33139.33,31954.53,24175.27,27235.61,11336.47,8534.96
1390051.5818,2228.98,11515.67,33141.95,31949.24,24168.68,27259.88,11378.58,8529.85
1390051.5838,2687.03,11570.26,33139.76,31938.65,24155.91,27293.3,11475.23,8516.5
1390051.5858,3054.67,11650.42,33127.74,31925.01,24137.21,27320.39,11589.19,8495.38
1390051.5878,3110.27,11696.01,33117.2,31915.48,24127.06,27335.84,11665.73,8484.51
1390051.5898,2816.73,11713.36,33107.0,31917.53,24123.15,27315.57,11656.43,8481.89
1390051.5918,2220.68,11644.56,33106.71,31922.96,24138.31,27279.0,11537.36,8495.33
1390051.5938,1797.49,11554.62,33118.06,31936.6,24161.34,27238.94,11412.0,8515.74
1390051.5958,1748.9,11490.68,33130.03,31949.57,24173.41,27225.83,11338.52,8531.0
1390051.5978,2093.84,11500.07,33138.28,31956.82,24173.88,27258.92,11364.56,8535.0
1390051.5998,2523.8,11536.84,33130.7,31945.04,24157.57,27284.67,11433.7,8520.56
1390051.6018,2962.35,11610.7,33114.72,31922.73,24127.1,27303.51,11536.36,8495.14
1390051.6038,3114.37,11670.35,33108.72,31905.99,24116.66,27324.16,11629.82,8483.51
1390051.6058,2972.98,11714.51,33110.72,31914.24,24122.24,27321.29,11662.01,8487.46
1390051.6078,2426.0,11675.03,33111.67,31921.06,24133.35,27290.06,11584.47,8496.14
1390051.6098,1924.99,11591.48,33122.16,31937.89,24154.76,27261.93,11460.97,8516.69
1390051.6118,1720.86,11516.57,33137.37,31948.52,24170.64,27246.34,11360.22,8534.96
1390051.6138,1987.03,11514.19,33159.4,31961.11,24182.56,27262.98,11356.98,8547.35
1390051.6158,2385.9,11541.7,33164.51,31953.43,24175.74,27301.36,11420.78,8538.77
1390051.6178,2871.85,11613.56,33157.11,31944.56,24158.72,27334.31,11529.83,8517.12
1390051.6198,3105.21,11665.73,33133.65,31919.01,24135.16,27336.41,11618.81,8489.56
1390051.6218,3070.12,11705.59,33116.82,31911.81,24123.58,27317.86,11664.2,8478.21
1390051.6238,2617.79,11688.52,33103.61,31907.61,24123.81,27286.44,11614.61,8480.55
1390051.6258,2051.64,11603.5,33101.99,31912.24,24136.5,27243.57,11488.34,8495.47
1390051.6278,1723.96,11527.4,33123.16,31934.89,24165.82,27233.13,11385.25,8525.52
1390051.6298,1861.38,11501.36,33137.23,31952.0,24175.98,27245.24,11345.48,8536.82
