TimeStamp,Fpz,Gnd,Fz,Cz,CPz,POz
1133348.1398,-4590.99,19268.18,8161.16,34656.91,30783.42,22831.25
1133348.1418,-4585.31,19242.1,8034.99,34641.46,30720.43,22784.14
1133348.1438,-4580.31,19228.32,7947.35,34636.45,30677.66,22757.91
1133348.1458,-4579.02,19267.47,8045.05,34658.29,30726.44,22799.35
1133348.1478,-4586.12,19293.41,8158.02,34666.73,30777.27,22835.45
1133348.1498,-4590.99,19312.72,8245.9,34673.36,30818.42,22865.68
1133348.1518,-4604.44,19334.75,8353.71,34682.56,30879.26,22905.5
1133348.1538,-4605.06,19305.28,8299.26,34666.21,30851.61,22876.41
1133348.1558,-4599.67,19274.76,8190.44,34651.09,30795.15,22833.73
1133348.1578,-4594.71,19251.78,8080.67,34637.17,30735.78,22790.77
1133348.1598,-4576.92,19230.65,7961.27,34628.59,30676.03,22755.29
1133348.1618,-4573.39,19263.17,8006.0,34651.33,30705.03,22781.09
1133348.1638,-4574.73,19300.61,8134.41,34672.65,30771.02,22827.68
1133348.1658,-4573.82,19323.54,8228.92,34683.71,30813.13,22857.33
1133348.1678,-4591.42,19347.96,8345.51,34695.49,30873.16,22899.58
1133348.1698,-4596.33,19332.46,8346.51,34686.95,30875.4,22899.06
1133348.1718,-4582.93,19295.65,8241.65,34669.07,30823.04,22859.15
1133348.1738,-4569.82,19272.04,8134.99,34660.63,30767.92,22820.43
1133348.1758,-4570.91,19243.67,8009.34,34640.94,30701.83,22774.56
1133348.1778,-4560.66,19252.59,7977.53,34648.99,30686.19,22769.07
1133348.1798,-4560.52,19298.94,8108.43,34677.37,30757.0,22823.43
1133348.1818,-4562.76,19320.59,8201.27,34687.24,30802.16,22853.52
1133348.1838,-4572.73,19337.32,8304.84,34695.77,30856.28,22893.05
1133348.1858,-4588.03,19340.14,8363.01,34696.54,30890.61,22916.7
1133348.1878,-4587.03,19302.66,8279.75,34676.84,30847.84,22881.99
1133348.1898,-4578.69,19268.18,8158.02,34657.67,30784.8,22830.68
1133348.1918,-4569.72,19247.01,8052.68,34648.61,30730.54,22791.01
1133348.1938,-4563.14,19232.7,7953.45,34641.22,30679.13,22759.15
1133348.1958,-4577.26,19279.2,8061.93,34669.83,30737.12,22808.75
1133348.1978,-4579.5,19304.99,8172.61,34680.56,30784.23,22843.65
1133348.1998,-4588.65,19325.88,8270.79,34688.19,30832.1,22876.89
1133348.2018,-4608.11,19340.18,8357.48,34696.73,30882.46,22908.74
1133348.2038,-4604.63,19313.0,8315.56,34681.99,30861.43,22888.57
1133348.2058,-4579.64,19276.81,8192.97,34664.44,30799.96,22841.17
1133348.2078,-4574.35,19252.68,8095.79,34652.62,30753.04,22804.55
1133348.2098,-4564.19,19222.07,7955.46,34636.93,30681.66,22756.39
1133348.2118,-4569.05,19252.78,8010.01,34657.1,30711.08,22784.81
1133348.2138,-4576.68,19286.01,8129.84,34671.12,30766.49,22825.67
1133348.2158,-4594.56,19310.67,8227.4,34680.9,30813.75,22860.82
1133348.2178,-4608.06,19333.6,8326.15,34693.15,30865.43,22897.82
1133348.2198,-4607.01,19326.45,8343.03,34689.86,30880.12,22903.68
1133348.2218,-4594.37,19286.78,8229.64,34665.92,30820.23,22855.19
1133348.2238,-4583.84,19262.03,8134.18,34656.1,30775.12,22818.04
1133348.2258,-4568.15,19226.03,7992.41,34637.74,30700.64,22768.36
1133348.2278,-4572.2,19235.33,7969.67,34645.94,30688.96,22766.78
1133348.2298,-4581.5,19276.76,8089.3,34665.02,30749.99,22809.32
1133348.2318,-4593.09,19305.47,8194.54,34676.6,30798.11,22844.13
1133348.2338,-4605.48,19329.36,8298.45,34691.34,30852.99,22884.75
1133348.2358,-4613.21,19340.23,8371.74,34699.16,30895.19,22915.89
1133348.2378,-4609.01,19299.7,8281.33,34678.75,30849.6,22875.5
1133348.2398,-4603.24,19272.38,8173.51,34662.97,30793.86,22833.73
1133348.2418,-4580.78,19247.82,8052.4,34647.56,30732.54,22792.34
1133348.2438,-4556.47,19233.47,7958.08,34643.08,30682.23,22762.35
1133348.2458,-4566.53,19277.0,8057.98,34667.88,30732.4,22800.83
1133348.2478,-4577.83,19309.48,8177.19,34680.94,30784.61,22836.12
1133348.2498,-4578.07,19329.5,8272.6,34691.96,30832.72,22869.83
1133348.2518,-4585.84,19352.44,8379.27,34709.41,30897.81,22917.75
1133348.2538,-4587.08,19332.03,8340.17,34698.78,30883.7,22903.45
1133348.2558,-4574.82,19301.18,8227.78,34683.71,30823.52,22857.33
1133348.2578,-4559.95,19276.34,8125.12,34673.89,30770.45,22816.33
1133348.2598,-4547.93,19248.39,7986.74,34658.44,30698.97,22770.98
1133348.2618,-4553.99,19283.96,8037.38,34679.75,30730.82,22799.49
1133348.2638,-4568.82,19316.87,8157.59,34696.01,30789.09,22842.36
1133348.2658,-4574.63,19333.7,8249.9,34701.54,30827.57,22871.88
1133348.2678,-4589.61,19359.64,8359.58,34717.09,30888.7,22915.56
1133348.2698,-4604.2,19345.43,8372.69,34707.69,30899.81,22916.89
1133348.2718,-4592.71,19310.05,8261.35,34687.48,30843.55,22875.36
1133348.2738,-4581.5,19281.58,8158.21,34675.75,30790.33,22836.12
1133348.2758,-4564.33,19249.16,8018.59,34659.34,30716.9,22786.57
1133348.2778,-4564.24,19253.69,7991.6,34662.92,30702.26,22786.52
1133348.2798,-4577.59,19297.17,8116.44,34688.57,30768.06,22833.4
1133348.2818,-4588.94,19326.83,8223.92,34702.26,30821.52,22871.12
1133348.2838,-4599.86,19344.14,8313.13,34714.66,30870.01,22906.5
1133348.2858,-4608.63,19352.39,8387.95,34721.28,30912.45,22936.97
1133348.2878,-4595.71,19317.39,8299.54,34703.16,30867.25,22905.07
1133348.2898,-4587.84,19284.87,8189.63,34686.28,30811.89,22862.82
1133348.2918,-4579.88,19254.59,8061.74,34668.74,30744.46,22809.27
1133348.2938,-4567.67,19239.81,7970.52,34660.77,30699.64,22778.75
1133348.2958,-4574.63,19277.77,8064.13,34680.28,30747.8,22815.8
1133348.2978,-4585.6,19308.52,8178.28,34693.44,30802.35,22858.05
1133348.2998,-4600.33,19322.3,8257.72,34698.4,30841.31,22885.85
1133348.3018,-4614.88,19341.76,8367.97,34707.6,30900.05,22928.72
1133348.3038,-4606.3,19314.34,8320.71,34689.14,30872.97,22903.68
1133348.3058,-4597.43,19275.81,8202.6,34667.11,30810.17,22855.81
1133348.3078,-4591.08,19246.87,8088.3,34652.9,30750.8,22806.6
1133348.3098,-4582.02,19216.97,7962.8,34634.07,30684.52,22762.44
1133348.3118,-4579.78,19246.53,8001.23,34652.28,30704.55,22785.14
1133348.3138,-4593.56,19287.97,8129.41,34671.88,30768.35,22831.4
1133348.3158,-4601.91,19308.28,8220.58,34679.46,30808.12,22861.77
1133348.3178,-4611.83,19338.18,8341.12,34701.21,30875.92,22916.22
1133348.3198,-4626.7,19326.4,8350.85,34693.58,30885.65,22918.75
1133348.3218,-4628.66,19290.26,8246.38,34671.93,30829.24,22875.31
1133348.3238,-4601.53,19265.08,8135.61,34659.2,30771.16,22827.77
1133348.3258,-4570.34,19239.62,8014.16,34649.9,30713.42,22787.76
1133348.3278,-4556.8,19247.44,7980.87,34659.44,30698.97,22786.1
1133348.3298,-4566.77,19297.75,8114.24,34688.72,30767.25,22839.74
1133348.3318,-4575.44,19322.54,8211.47,34695.68,30808.26,22867.49
1133348.3338,-4589.32,19345.48,8316.66,34709.03,30862.29,22905.83
1133348.3358,-4604.05,19352.44,8382.46,34712.94,30902.77,22931.39
1133348.3378,-4593.61,19320.68,8303.31,34693.63,30864.53,22901.16
1133348.3398,-4572.87,19287.35,8182.62,34675.7,30799.54,22849.94
1133348.3418,-4569.01,19258.41,8072.14,34657.15,30741.6,22802.88
1133348.3438,-4555.89,19243.53,7968.62,34653.81,30692.01,22772.36
1133348.3458,-4562.71,19289.07,8074.43,34682.85,30748.42,22817.42
1133348.3478,-4566.53,19321.11,8184.72,34695.3,30800.58,22852.81
1133348.3498,-4579.31,19341.23,8282.61,34705.12,30846.74,22887.18
1133348.3518,-4597.76,19356.16,8374.41,34711.94,30896.95,22920.85
1133348.3538,-4604.67,19330.07,8338.36,34695.53,30879.22,22903.73
1133348.3558,-4597.95,19290.97,8214.57,34675.32,30814.32,22853.38
1133348.3578,-4583.55,19268.85,8120.39,34665.87,30769.59,22820.52
1133348.3598,-4553.8,19243.19,7985.02,34655.58,30705.12,22783.76
1133348.3618,-4557.13,19271.23,8031.51,34676.7,30734.16,22811.32
1133348.3638,-4569.15,19307.09,8152.49,34696.11,30795.53,22853.28
1133348.3658,-4585.36,19330.41,8247.9,34706.17,30838.02,22888.38
1133348.3678,-4602.72,19349.34,8347.66,34716.99,30888.28,22923.76
1133348.3698,-4611.83,19346.38,8375.31,34714.27,30908.06,22936.16
1133348.3718,-4609.44,19304.99,8260.44,34690.81,30848.65,22887.85
1133348.3738,-4588.08,19280.82,8160.5,34678.03,30797.53,22849.13
1133348.3758,-4562.86,19250.78,8024.12,34660.72,30728.44,22803.88
1133348.3778,-4560.76,19259.5,7994.84,34670.07,30715.37,22800.07
1133348.3798,-4565.29,19301.56,8116.77,34698.49,30778.08,22847.8
1133348.3818,-4571.2,19329.93,8224.77,34711.17,30830.2,22885.09
1133348.3838,-4588.13,19351.15,8324.34,34721.28,30879.41,22919.61
1133348.3858,-4603.96,19359.78,8398.44,34724.81,30920.03,22948.7
1133348.3878,-4593.33,19322.78,8313.51,34703.78,30880.07,22913.65
1133348.3898,-4577.07,19290.54,8201.98,34689.57,30823.43,22868.97
1133348.3918,-4570.2,19261.51,8079.77,34671.55,30758.91,22821.81
1133348.3938,-4565.91,19250.92,7984.31,34665.16,30707.32,22792.77
1133348.3958,-4568.91,19291.36,8082.96,34685.33,30755.33,22830.2
1133348.3978,-4576.87,19317.44,8196.83,34696.96,30806.4,22865.11
1133348.3998,-4588.6,19340.18,8292.01,34712.46,30859.76,22901.73
1133348.4018,-4611.59,19362.07,8394.15,34724.14,30918.08,22943.45
1133348.4038,-4597.47,19336.75,8355.38,34707.6,30898.53,22926.38
1133348.4058,-4566.53,19304.23,8243.75,34690.77,30838.78,22880.99
1133348.4078,-4552.36,19281.77,8139.23,34681.04,30786.57,22841.03
1133348.4098,-4545.31,19254.73,8003.57,34665.87,30715.99,22793.82
1133348.4118,-4549.79,19284.39,8050.35,34684.57,30740.84,22816.71
1133348.4138,-4559.61,19319.92,8170.89,34701.64,30799.58,22858.43
1133348.4158,-4571.34,19337.32,8260.2,34704.74,30836.01,22881.75
1133348.4178,-4582.98,19357.87,8364.73,34712.7,30888.75,22916.84
1133348.4198,-4586.74,19355.35,8394.19,34711.51,30908.3,22924.19
1133348.4218,-4571.68,19312.86,8279.99,34687.95,30846.17,22875.74
1133348.4238,-4558.99,19286.35,8176.38,34678.51,30794.58,22835.64
1133348.4258,-4550.08,19257.93,8041.91,34665.3,30726.29,22789.81
1133348.4278,-4551.98,19271.38,8016.63,34674.7,30715.28,22791.72
1133348.4298,-4558.75,19316.96,8140.61,34701.78,30781.08,22839.36
1133348.4318,-4564.81,19342.62,8247.57,34714.51,30833.77,22877.41
1133348.4338,-4575.35,19359.11,8339.26,34726.72,30881.46,22915.7
1133348.4358,-4593.18,19366.08,8416.22,34725.53,30924.47,22942.97
1133348.4378,-4590.08,19324.73,8326.96,34697.44,30872.06,22900.11
1133348.4398,-4581.45,19296.31,8221.77,34686.52,30818.42,22858.67
1133348.4418,-4567.67,19270.47,8098.98,34673.74,30756.43,22812.04
1133348.4438,-4551.89,19258.26,8004.28,34668.4,30712.66,22784.95
1133348.4458,-4556.75,19297.32,8094.45,34693.05,30761.29,22823.77
1133348.4478,-4564.95,19328.79,8213.04,34707.55,30817.56,22864.3
1133348.4498,-4577.49,19349.72,8297.87,34717.04,30859.38,22896.24
1133348.4518,-4584.5,19374.99,8415.08,34734.16,30928.0,22946.03
1133348.4538,-4580.12,19345.52,8370.21,34717.04,30903.63,22925.24
1133348.4558,-4569.86,19313.53,8261.49,34701.07,30847.65,22884.75
1133348.4578,-4561.09,19283.15,8146.19,34684.33,30789.47,22839.45
1133348.4598,-4557.71,19253.64,8018.21,34667.16,30723.19,22796.06
1133348.4618,-4562.95,19274.9,8044.05,34683.57,30736.4,22810.46
1133348.4638,-4562.9,19313.0,8170.8,34703.21,30797.44,22854.62
1133348.4658,-4563.09,19333.7,8261.25,34709.84,30837.63,22883.08
1133348.4678,-4577.35,19358.59,8379.79,34722.0,30900.53,22929.53
1133348.4698,-4592.04,19346.0,8390.28,34712.94,30910.16,22929.53
1133348.4718,-4596.57,19310.91,8284.95,34693.91,30857.23,22886.37
1133348.4738,-4576.78,19284.44,8174.94,34682.13,30799.34,22844.27
1133348.4758,-4553.75,19255.55,8054.54,34668.35,30740.07,22804.36
1133348.4778,-4546.36,19256.07,8005.57,34667.4,30713.23,22789.1
1133348.4798,-4560.85,19302.7,8132.98,34695.06,30780.32,22841.22
1133348.4818,-4574.01,19324.3,8230.73,34706.79,30825.9,22877.74
1133348.4838,-4588.89,19349.67,8338.12,34717.95,30878.98,22917.85
1133348.4858,-4599.43,19352.49,8403.45,34712.99,30911.26,22933.87
1133348.4878,-4596.57,19309.62,8317.9,34684.14,30864.96,22892.38
1133348.4898,-4588.08,19274.86,8192.4,34666.11,30801.73,22844.84
1133348.4918,-4577.02,19252.3,8087.54,34659.58,30755.0,22813.66
1133348.4938,-4562.86,19237.43,7981.4,34655.05,30703.45,22784.38
1133348.4958,-4572.82,19281.58,8084.68,34685.76,30759.77,22826.58
1133348.4978,-4583.69,19310.86,8195.54,34697.92,30809.88,22861.25
1133348.4998,-4582.26,19333.75,8295.01,34707.12,30856.09,22897.06
1133348.5018,-4584.27,19353.2,8393.81,34718.37,30909.73,22936.78
1133348.5038,-4594.42,19326.74,8360.34,34704.16,30896.24,22923.81
1133348.5058,-4597.38,19289.78,8234.07,34682.75,30831.48,22874.21
1133348.5078,-4587.75,19272.38,8142.66,34675.41,30786.42,22840.31
1133348.5098,-4562.43,19233.47,7997.18,34656.58,30711.7,22784.66
1133348.5118,-4554.22,19266.13,8041.57,34680.28,30740.69,22810.89
1133348.5138,-4569.24,19301.08,8157.78,34695.53,30794.53,22848.32
1133348.5158,-4578.54,19323.35,8251.72,34698.54,30835.11,22874.02
1133348.5178,-4586.55,19341.19,8346.61,34707.12,30883.27,22909.6
1133348.5198,-4596.66,19335.32,8376.31,34703.88,30900.58,22920.71
1133348.5218,-4586.74,19299.32,8268.6,34683.66,30847.22,22876.69
1133348.5237,-4573.58,19279.86,8173.99,34676.75,30801.35,22840.17
1133348.5257,-4566.48,19243.15,8033.13,34658.63,30727.34,22789.67
1133348.5277,-4564.67,19246.72,7993.32,34664.92,30709.22,22787.53
1133348.5297,-4576.16,19291.4,8114.62,34688.05,30768.68,22831.35
1133348.5317,-4581.02,19319.2,8219.53,34698.68,30819.61,22865.44
1133348.5337,-4585.08,19338.9,8319.0,34709.93,30871.82,22904.83
1133348.5357,-4595.52,19346.38,8390.86,34714.51,30912.12,22935.35
1133348.5377,-4590.7,19310.19,8308.08,34690.81,30867.77,22895.77
1133348.5397,-4585.93,19277.15,8195.54,34671.98,30807.12,22847.61
1133348.5417,-4570.77,19255.07,8081.96,34662.68,30750.8,22805.6
1133348.5437,-4554.56,19240.81,7979.54,34659.72,30700.35,22777.7
1133348.5457,-4574.49,19276.72,8068.37,34680.99,30747.85,22814.47
1133348.5477,-4591.32,19305.9,8185.24,34692.1,30799.3,22849.85
1133348.5497,-4590.42,19324.02,8274.46,34697.35,30838.54,22881.46
1133348.5517,-4596.9,19344.38,8379.41,34706.07,30894.24,22922.04
1133348.5537,-4602.62,19320.06,8345.75,34692.58,30879.83,22905.69
1133348.5557,-4584.12,19287.3,8229.97,34675.41,30822.42,22863.82
1133348.5577,-4567.72,19261.89,8128.55,34667.5,30773.6,22825.53
1133348.5597,-4559.61,19227.7,7984.88,34652.19,30701.35,22779.9
1133348.5617,-4573.2,19249.06,8018.07,34670.02,30722.62,22801.78
1133348.5637,-4591.66,19281.29,8143.38,34689.57,30786.76,22850.09
1133348.5657,-4602.29,19301.94,8233.02,34689.48,30820.28,22872.98
1133348.5677,-4593.56,19335.18,8339.74,34701.3,30874.78,22907.69
1133348.5697,-4585.36,19332.94,8371.54,34698.68,30896.0,22913.65
1133348.5717,-4576.3,19297.51,8264.21,34679.56,30842.74,22870.35
1133348.5737,-4571.82,19272.43,8163.98,34673.41,30795.24,22833.87
1133348.5757,-4557.28,19244.15,8030.08,34660.77,30726.53,22789.29
1133348.5777,-4540.44,19256.93,7995.03,34665.06,30708.32,22786.05
1133348.5797,-4539.25,19306.04,8118.3,34690.72,30769.97,22830.54
1133348.5817,-4555.89,19330.93,8223.77,34700.78,30817.42,22862.48
1133348.5837,-4568.86,19351.63,8317.09,34714.04,30868.96,22901.01
1133348.5857,-4578.78,19371.32,8406.59,34723.67,30919.27,22931.96
1133348.5877,-4560.09,19339.52,8324.91,34702.59,30873.68,22893.72
1133348.5897,-4545.83,19305.66,8213.62,34683.42,30817.42,22847.37
1133348.5917,-4531.57,19274.05,8091.45,34670.74,30754.86,22802.98
1133348.5937,-4518.22,19257.6,7992.94,34664.64,30704.07,22774.75
1133348.5957,-4524.09,19303.94,8085.39,34691.62,30755.29,22816.14
1133348.5977,-4522.85,19343.9,8210.95,34709.84,30817.18,22859.39
1133348.5997,-4522.04,19363.69,8296.63,34718.71,30857.95,22888.52
1133348.6017,-4539.35,19385.34,8413.27,34733.25,30919.32,22937.21
1133348.6037,-4539.3,19350.48,8365.11,34705.69,30891.66,22909.45
1133348.6057,-4526.81,19316.15,8252.1,34685.09,30836.4,22866.11
1133348.6077,-4525.28,19288.26,8142.14,34672.55,30780.37,22821.1
1133348.6097,-4516.65,19260.55,8016.3,34664.11,30719.33,22782.28
1133348.6117,-4506.16,19285.97,8038.57,34680.94,30734.69,22801.97
1133348.6137,-4512.88,19325.69,8168.22,34703.31,30802.06,22851.85
1133348.6157,-4528.24,19346.33,8257.87,34711.89,30838.92,22879.6
1133348.6177,-4550.74,19365.5,8370.92,34721.57,30896.33,22919.9
1133348.6197,-4550.79,19358.78,8391.57,34716.32,30911.26,22926.38
1133348.6217,-4536.1,19325.21,8290.05,34698.11,30859.43,22886.18
1133348.6237,-4526.19,19295.41,8176.61,34683.76,30798.63,22839.12
1133348.6257,-4528.38,19267.56,8056.36,34669.64,30737.59,22798.97
1133348.6277,-4526.71,19267.56,8003.28,34671.98,30707.55,22788.58
1133348.6297,-4529.62,19310.67,8128.83,34695.82,30770.69,22836.69
1133348.6317,-4545.36,19338.09,8229.64,34706.31,30818.37,22867.92
1133348.6337,-4557.32,19360.74,8336.83,34719.85,30872.87,22907.07
1133348.6357,-4549.55,19365.46,8406.26,34721.52,30911.35,22932.2
1133348.6377,-4541.83,19327.83,8325.39,34697.82,30869.2,22898.58
1133348.6397,-4540.16,19291.88,8202.98,34676.37,30803.92,22844.03
1133348.6417,-4545.26,19260.22,8090.07,34656.48,30744.94,22794.44
1133348.6437,-4537.3,19230.18,7968.05,34639.41,30677.75,22749.57
1133348.6457,-4543.88,19276.57,8068.75,34674.79,30734.11,22799.3
1133348.6477,-4547.55,19323.54,8196.02,34704.36,30800.68,22849.61
1133348.6497,-4552.13,19350.24,8299.4,34717.99,30851.7,22888.38
1133348.6517,-4559.71,19365.69,8393.57,34723.91,30902.2,22925.33
1133348.6537,-4550.08,19339.47,8363.44,34707.46,30889.42,22908.64
1133348.6557,-4531.72,19296.84,8235.6,34687.38,30826.86,22857.14
1133348.6577,-4525.28,19276.57,8140.23,34678.27,30780.46,22824.96
1133348.6597,-4516.08,19242.81,7999.47,34658.01,30708.17,22780.47
1133348.6617,-4518.8,19271.09,8039.52,34679.7,30732.54,22806.84
1133348.6637,-4527.47,19313.05,8165.12,34702.26,30794.67,22852.47
1133348.6657,-4541.35,19332.94,8257.01,34708.98,30838.3,22879.41
1133348.6677,-4560.38,19350.86,8350.61,34716.47,30886.13,22911.31
1133348.6697,-4570.77,19348.29,8384.18,34712.27,30906.2,22922.18
1133348.6717,-4563.67,19314.96,8281.61,34694.53,30856.47,22884.8
1133348.6737,-4549.5,19293.6,8186.77,34688.76,30811.84,22851.23
1133348.6757,-4529.86,19256.4,8048.2,34671.31,30740.88,22808.46
1133348.6777,-4515.98,19263.08,8006.14,34680.56,30722.76,22804.07
1133348.6797,-4524.85,19308.14,8127.59,34705.93,30785.33,22851.04
1133348.6817,-4552.13,19330.46,8227.4,34711.17,30828.48,22881.03
1133348.6837,-4577.97,19353.82,8327.96,34718.66,30875.16,22913.46
1133348.6857,-4598.43,19362.12,8404.54,34723.48,30919.27,22942.07
1133348.6877,-4572.82,19326.02,8324.1,34703.35,30878.74,22906.45
1133348.6897,-4539.59,19295.93,8215.86,34692.96,30826.05,22862.39
1133348.6917,-4528.24,19263.22,8097.6,34674.6,30762.63,22816.37
1133348.6937,-4510.74,19244.05,7988.22,34662.92,30702.88,22782.23
1133348.6957,-4513.65,19284.2,8079.82,34686.81,30750.85,22818.23
1133348.6977,-4534.63,19314.01,8193.16,34698.11,30803.97,22851.37
1133348.6997,-4549.07,19340.09,8288.67,34710.79,30852.46,22882.66
1133348.7017,-4576.11,19359.5,8392.0,34720.57,30909.45,22920.52
1133348.7037,-4587.6,19325.88,8354.43,34697.49,30886.22,22899.25
1133348.7057,-4570.06,19288.07,8235.36,34678.89,30823.57,22850.52
1133348.7077,-4550.6,19266.04,8136.42,34670.31,30777.51,22813.23
1133348.7097,-4530.38,19241.72,8000.61,34656.96,30711.27,22772.51
1133348.7117,-4526.42,19270.28,8034.28,34674.31,30733.26,22797.78
1133348.7137,-4538.35,19308.47,8158.49,34695.92,30794.81,22843.08
1133348.7157,-4557.47,19320.78,8244.28,34693.39,30825.81,22864.06
1133348.7177,-4585.79,19331.17,8338.12,34693.44,30864.15,22888.95
1133348.7197,-4591.04,19332.32,8379.6,34695.39,30888.99,22904.97
1133348.7217,-4582.83,19293.22,8271.98,34676.41,30834.01,22863.34
1133348.7237,-4590.08,19259.26,8163.88,34655.96,30778.41,22818.52
1133348.7257,-4576.64,19227.27,8025.12,34636.17,30708.75,22769.41
1133348.7277,-4556.85,19235.66,7984.97,34648.09,30693.87,22767.88
1133348.7297,-4561.0,19283.87,8106.95,34678.32,30759.29,22820.81
1133348.7317,-4565.81,19313.24,8217.38,34692.67,30814.56,22865.35
1133348.7337,-4556.13,19347.62,8319.57,34718.33,30874.88,22913.74
1133348.7357,-4575.06,19353.68,8403.73,34719.71,30916.93,22940.92
1133348.7377,-4586.6,19305.61,8311.89,34685.85,30861.0,22892.62
1133348.7397,-4568.24,19272.14,8199.5,34666.69,30803.21,22843.94
1133348.7417,-4547.79,19240.72,8079.01,34653.72,30742.12,22798.59
1133348.7437,-4531.57,19227.46,7979.2,34649.04,30695.78,22774.08
1133348.7457,-4536.44,19265.37,8060.5,34670.93,30738.93,22811.42
1133348.7477,-4555.51,19297.51,8180.57,34686.14,30797.63,22856.1
1133348.7497,-4568.53,19318.54,8269.88,34692.96,30838.21,22887.18
1133348.7517,-4587.98,19340.95,8386.04,34703.21,30902.77,22926.95
1133348.7537,-4593.09,19313.29,8346.22,34683.28,30882.22,22902.44
1133348.7557,-4585.7,19271.9,8231.64,34662.16,30823.04,22859.86
1133348.7577,-4582.98,19247.77,8120.59,34654.76,30770.59,22819.62
1133348.7597,-4582.45,19225.55,7997.85,34643.94,30708.98,22779.66
1133348.7617,-4578.92,19243.05,8015.92,34654.91,30714.94,22786.1
1133348.7637,-4567.67,19285.82,8149.34,34678.7,30784.28,22835.11
1133348.7657,-4555.13,19318.96,8245.9,34694.49,30832.29,22869.64
1133348.7677,-4570.06,19344.95,8363.72,34708.27,30892.52,22918.61
1133348.7697,-4571.63,19333.56,8387.28,34703.93,30908.25,22925.95
1133348.7717,-4560.42,19303.66,8293.06,34692.1,30862.05,22891.91
1133348.7737,-4565.24,19264.13,8168.03,34669.69,30794.91,22838.07
1133348.7757,-4551.75,19233.66,8045.67,34652.14,30739.22,22799.16
1133348.7777,-4528.0,19238.47,7993.75,34656.62,30713.13,22789.86
1133348.7797,-4539.92,19287.78,8124.64,34684.38,30780.89,22838.69
1133348.7817,-4562.86,19309.71,8221.34,34691.24,30822.19,22862.72
1133348.7837,-4589.37,19331.7,8321.1,34701.21,30871.73,22897.87
1133348.7857,-4599.95,19331.46,8389.86,34697.3,30906.87,22921.71
1133348.7877,-4591.94,19292.55,8310.99,34671.12,30865.39,22888.95
1133348.7897,-4568.96,19260.84,8191.35,34657.43,30805.16,22842.41
1133348.7917,-4555.61,19236.38,8089.92,34649.19,30755.86,22807.84
1133348.7937,-4542.78,19216.78,7975.15,34645.85,30703.6,22781.37
1133348.7957,-4556.08,19262.98,8073.81,34675.79,30757.14,22829.54
1133348.7977,-4589.13,19294.41,8183.05,34685.09,30810.07,22861.44
1133348.7997,-4586.36,19309.19,8273.89,34690.43,30851.8,22887.04
1133348.8017,-4572.34,19328.02,8374.17,34706.17,30908.35,22927.33
1133348.8037,-4583.22,19304.95,8352.42,34690.19,30897.19,22915.18
1133348.8057,-4591.42,19259.79,8221.77,34663.73,30825.38,22858.43
1133348.8077,-4578.69,19245.91,8132.89,34657.29,30781.18,22824.19
1133348.8097,-4554.89,19213.11,7986.4,34636.36,30705.74,22774.08
1133348.8117,-4553.08,19235.42,8012.96,34651.33,30717.33,22790.05
1133348.8137,-4560.42,19281.58,8145.57,34679.32,30786.8,22839.07
1133348.8157,-4563.05,19308.71,8250.38,34694.82,30840.78,22875.5
1133348.8177,-4581.26,19319.49,8339.17,34695.53,30880.69,22901.44
1133348.8197,-4588.99,19321.49,8380.46,34694.82,30904.11,22914.36
1133348.8217,-4587.36,19282.63,8272.03,34670.5,30848.79,22865.87
1133348.8237,-4573.3,19255.97,8170.41,34658.05,30795.86,22825.53
1133348.8257,-4550.65,19222.93,8038.57,34640.7,30729.58,22780.8
1133348.8277,-4545.31,19228.6,7990.03,34648.95,30708.98,22777.13
1133348.8297,-4561.52,19272.85,8109.48,34674.36,30769.88,22822.95
1133348.8317,-4571.49,19308.24,8220.48,34691.24,30823.47,22862.15
1133348.8337,-4589.03,19325.4,8316.85,34694.2,30870.58,22890.38
1133348.8357,-4602.15,19334.65,8395.34,34696.39,30907.01,22914.98
1133348.8377,-4595.95,19299.46,8320.33,34674.46,30866.1,22881.46
1133348.8397,-4572.01,19268.56,8209.42,34661.58,30810.98,22839.26
1133348.8417,-4554.46,19238.52,8092.26,34645.99,30753.66,22801.26
1133348.8437,-4539.59,19219.78,7980.25,34641.13,30698.26,22770.93
1133348.8457,-4545.64,19265.32,8070.99,34670.21,30748.28,22809.03
1133348.8477,-4561.81,19294.55,8186.1,34681.85,30801.63,22841.65
1133348.8497,-4575.44,19313.86,8276.61,34690.77,30846.27,22871.31
1133348.8517,-4585.98,19335.22,8382.04,34701.92,30901.72,22914.46
1133348.8537,-4589.61,19310.48,8359.62,34685.19,30890.04,22903.83
1133348.8557,-4578.73,19275.24,8244.71,34665.87,30828.81,22856.67
1133348.8577,-4566.34,19249.3,8142.14,34655.67,30781.51,22818.47
1133348.8597,-4550.93,19212.49,7996.7,34638.74,30712.27,22774.41
1133348.8617,-4554.46,19231.89,8018.07,34648.14,30723.05,22789.53
1133348.8637,-4563.19,19277.38,8146.05,34675.03,30786.47,22837.83
1133348.8657,-4574.49,19299.84,8245.14,34685.19,30828.48,22869.02
1133348.8677,-4589.94,19323.26,8348.99,34698.3,30879.26,22907.93
1133348.8697,-4597.57,19323.16,8392.76,34693.87,30903.49,22921.28
1133348.8717,-4587.08,19280.2,8279.18,34666.45,30844.22,22872.88
1133348.8737,-4573.01,19254.11,8175.66,34655.96,30794.34,22833.64
1133348.8757,-4564.86,19226.31,8039.9,34641.41,30728.63,22791.1
1133348.8777,-4561.62,19227.98,7990.98,34645.61,30705.22,22783.47
1133348.8797,-4570.58,19263.32,8102.27,34663.54,30757.24,22819.24
1133348.8817,-4582.64,19286.97,8207.61,34670.74,30803.64,22852.57
1133348.8837,-4588.18,19308.38,8295.16,34679.61,30846.55,22886.37
1133348.8857,-4599.67,19327.21,8393.1,34688.14,30904.49,22925.67
1133348.8877,-4603.24,19286.78,8309.79,34663.3,30856.33,22886.47
1133348.8897,-4595.42,19245.91,8192.11,34640.6,30791.24,22834.83
1133348.8917,-4570.48,19223.36,8079.24,34637.22,30740.41,22800.69
1133348.8937,-4555.23,19211.96,7973.0,34632.54,30690.15,22773.51
1133348.8957,-4559.61,19252.45,8055.35,34656.2,30733.16,22804.55
1133348.8977,-4569.96,19282.72,8175.18,34670.4,30788.57,22838.74
1133348.8997,-4584.89,19295.55,8253.77,34673.6,30820.13,22859.0
1133348.9017,-4600.24,19326.5,8379.46,34692.82,30893.62,22912.98
1133348.9037,-4598.81,19305.99,8350.99,34676.99,30879.41,22899.2
1133348.9057,-4584.69,19264.65,8233.02,34655.05,30817.18,22850.75
1133348.9077,-4577.02,19231.99,8118.44,34639.65,30758.77,22803.93
1133348.9097,-4560.57,19213.87,7997.13,34634.31,30702.36,22772.12
1133348.9117,-4560.28,19234.95,8011.39,34650.14,30710.7,22787.48
1133348.9137,-4587.36,19268.32,8131.17,34664.16,30766.4,22826.34
1133348.9157,-4595.8,19289.54,8217.38,34670.93,30808.12,22855.33
1133348.9177,-4596.38,19317.01,8336.59,34687.62,30870.73,22900.54
1133348.9197,-4597.57,19310.67,8367.83,34683.57,30888.23,22907.55
1133348.9217,-4602.72,19269.56,8263.45,34659.2,30832.77,22865.01
1133348.9237,-4602.19,19231.51,8139.9,34636.45,30766.68,22809.46
1133348.9257,-4585.93,19206.19,8022.36,34626.39,30711.42,22773.55
1133348.9277,-4559.14,19214.87,7967.52,34639.36,30689.2,22771.17
1133348.9297,-4573.49,19258.45,8090.16,34665.4,30752.33,22818.52
1133348.9317,-4592.04,19282.82,8189.2,34672.79,30796.77,22847.7
1133348.9337,-4606.44,19310.67,8293.73,34683.9,30848.46,22887.9
1133348.9357,-4605.1,19326.64,8380.56,34693.39,30896.24,22919.71
1133348.9377,-4607.92,19297.75,8315.71,34677.03,30862.29,22889.81
1133348.9397,-4608.01,19256.5,8183.53,34654.05,30791.81,22832.68
1133348.9417,-4590.13,19227.08,8079.67,34642.56,30739.74,22793.49
1133348.9437,-4567.34,19208.15,7958.37,34634.64,30682.09,22763.59
1133348.9457,-4568.53,19251.78,8046.68,34661.58,30729.54,22805.22
1133348.9477,-4577.68,19284.97,8160.35,34675.94,30782.08,22842.55
1133348.9497,-4594.61,19303.32,8256.39,34682.33,30827.1,22872.64
1133348.9517,-4608.92,19319.58,8353.85,34690.57,30880.65,22907.45
1133348.9537,-4609.06,19305.04,8338.4,34680.47,30875.54,22901.97
1133348.9557,-4596.38,19266.04,8211.76,34654.57,30806.12,22848.23
1133348.9577,-4580.07,19242.81,8115.2,34641.94,30754.28,22811.32
1133348.9597,-4558.04,19215.16,7977.39,34629.25,30685.71,22771.46
1133348.9617,-4563.95,19236.38,7997.18,34646.66,30699.54,22786.52
1133348.9637,-4570.53,19279.63,8125.97,34669.98,30765.35,22829.54
1133348.9657,-4579.02,19309.33,8228.26,34683.42,30811.65,22861.86
1133348.9677,-4598.9,19327.21,8326.25,34692.77,30859.38,22897.72
1133348.9697,-4617.45,19325.78,8369.97,34689.91,30882.89,22913.7
1133348.9717,-4616.45,19286.92,8264.3,34665.54,30828.62,22869.59
1133348.9737,-4601.62,19261.17,8158.4,34653.52,30776.08,22827.68
1133348.9757,-4579.5,19227.41,8025.07,34636.69,30707.17,22783.09
1133348.9777,-4551.98,19231.18,7970.38,34644.08,30682.38,22774.03
1133348.9797,-4559.14,19272.52,8085.39,34668.74,30740.41,22814.66
1133348.9817,-4574.73,19299.46,8191.87,34679.08,30787.71,22848.04
1133348.9837,-4588.08,19320.87,8291.91,34689.24,30838.16,22885.66
1133348.9857,-4605.72,19330.79,8374.17,34692.2,30882.65,22914.36
1133348.9877,-4615.21,19293.36,8299.02,34666.02,30841.35,22881.32
1133348.9897,-4609.68,19262.13,8187.68,34654.29,30786.95,22840.07
1133348.9917,-4598.62,19236.23,8077.48,34644.66,30734.83,22804.22
1133348.9937,-4582.69,19216.92,7957.84,34637.26,30677.51,22770.46
1133348.9957,-4589.42,19251.21,8037.14,34655.86,30716.71,22804.64
1133348.9977,-4584.12,19285.97,8154.73,34668.97,30769.3,22842.36
1133348.9997,-4588.6,19302.94,8248.62,34676.27,30812.7,22876.69
1133349.0017,-4600.76,19325.45,8357.86,34690.34,30872.01,22919.61
1133349.0037,-4606.01,19304.71,8340.46,34676.22,30864.91,22907.69
1133349.0057,-4596.85,19268.8,8220.24,34658.1,30807.07,22860.67
1133349.0077,-4591.32,19244.1,8116.63,34645.94,30754.95,22820.95
1133349.0097,-4567.34,19210.29,7971.1,34628.92,30680.9,22774.75
1133349.0117,-4555.85,19234.18,7993.65,34645.28,30693.25,22791.91
1133349.0137,-4576.78,19269.99,8113.91,34661.68,30747.8,22826.72
1133349.0157,-4596.33,19291.16,8210.71,34668.31,30792.29,22855.43
1133349.0177,-4606.63,19319.68,8314.23,34687.86,30848.36,22898.39
1133349.0197,-4612.06,19320.97,8366.54,34689.14,30880.12,22919.56
1133349.0217,-4604.1,19285.44,8265.31,34671.12,30827.43,22882.66
1133349.0237,-4596.9,19256.78,8159.92,34654.57,30773.26,22837.02
1133349.0257,-4584.98,19215.44,8015.3,34628.63,30697.02,22780.8
1133349.0277,-4572.49,19215.3,7961.42,34634.02,30674.03,22773.7
1133349.0297,-4580.55,19268.37,8082.68,34667.78,30740.17,22823.67
1133349.0317,-4596.76,19299.32,8198.07,34683.37,30793.62,22864.01
1133349.0337,-4602.77,19316.39,8277.56,34687.05,30830.67,22891.05
1133349.0357,-4610.87,19332.84,8379.03,34696.15,30886.22,22926.14
1133349.0377,-4628.13,19290.69,8297.3,34669.83,30840.5,22888.47
1133349.0397,-4626.47,19259.36,8183.72,34651.52,30782.89,22846.03
1133349.0417,-4601.81,19230.8,8064.32,34633.5,30721.53,22799.54
1133349.0437,-4576.21,19205.29,7951.98,34625.96,30668.41,22768.88
1133349.0457,-4570.91,19239.81,8024.5,34650.33,30707.08,22801.97
1133349.0477,-4586.03,19273.0,8146.67,34667.07,30762.68,22840.69
1133349.0497,-4602.15,19289.97,8228.26,34673.84,30800.49,22869.54
1133349.0517,-4617.93,19322.54,8355.48,34689.96,30869.68,22922.57
1133349.0537,-4618.36,19293.88,8327.53,34665.16,30849.75,22899.77
1133349.0557,-4603.43,19254.11,8213.57,34646.28,30795.72,22854.71
1133349.0577,-4587.6,19229.56,8105.9,34639.17,30744.03,22816.28
1133349.0597,-4582.02,19203.28,7979.54,34631.02,30686.67,22782.71
1133349.0617,-4581.21,19224.22,7986.4,34645.7,30692.06,22795.01
1133349.0637,-4589.65,19268.9,8120.63,34669.45,30759.77,22844.13
1133349.0657,-4599.86,19290.97,8209.9,34678.27,30798.92,22871.83
1133349.0677,-4616.07,19316.01,8327.39,34692.77,30859.71,22915.27
1133349.0697,-4624.18,19313.39,8367.73,34688.62,30878.31,22922.14
1133349.0717,-4613.69,19276.53,8266.02,34664.78,30826.0,22881.32
1133349.0737,-4594.28,19248.39,8150.39,34652.38,30768.35,22838.36
1133349.0757,-4579.21,19224.07,8034.85,34644.42,30713.23,22804.22
1133349.0777,-4569.05,19217.92,7964.42,34646.71,30681.28,22787.86
1133349.0797,-4587.75,19263.99,8084.58,34669.31,30741.84,22827.68
1133349.0817,-4596.52,19284.44,8183.19,34672.65,30778.84,22850.33
1133349.0837,-4601.43,19304.56,8285.62,34683.47,30828.67,22888.0
1133349.0857,-4606.06,19319.16,8368.92,34689.86,30872.97,22918.27
1133349.0877,-4607.82,19290.16,8306.08,34672.31,30844.5,22892.05
1133349.0897,-4604.34,19257.21,8187.87,34658.25,30786.14,22841.74
1133349.0917,-4589.61,19240.67,8092.07,34651.76,30742.41,22808.75
1133349.0937,-4560.76,19212.49,7959.32,34636.22,30677.75,22773.84
1133349.0957,-4556.75,19251.97,8046.63,34664.73,30724.96,22814.94
1133349.0977,-4576.11,19287.02,8166.08,34681.04,30778.6,22852.42
1133349.0997,-4595.04,19306.14,8260.44,34687.9,30819.61,22880.75
1133349.1017,-4605.39,19328.02,8363.58,34703.93,30878.12,22920.9
1133349.1037,-4609.63,19308.52,8353.09,34690.72,30875.83,22916.22
1133349.1057,-4602.72,19261.31,8224.35,34661.49,30806.4,22860.29
1133349.1077,-4595.71,19242.58,8130.17,34652.38,30759.96,22827.25
1133349.1097,-4584.03,19208.39,7985.31,34634.31,30689.05,22780.23
1133349.1117,-4578.45,19230.75,8001.38,34650.14,30700.64,22797.87
1133349.1137,-4580.78,19272.38,8126.78,34669.93,30760.77,22837.83
1133349.1157,-4584.79,19296.03,8223.77,34678.75,30800.87,22868.25
1133349.1177,-4605.39,19313.39,8315.56,34685.19,30845.5,22901.73
1133349.1197,-4620.46,19315.29,8363.44,34683.04,30871.54,22916.75
1133349.1217,-4607.96,19275.72,8264.21,34659.72,30820.37,22877.36
1133349.1237,-4583.22,19246.53,8160.26,34645.61,30765.58,22835.5
1133349.1257,-4566.43,19215.16,8028.03,34630.59,30702.64,22793.68
1133349.1277,-4567.1,19207.91,7957.79,34630.49,30668.21,22778.85
1133349.1297,-4584.98,19247.25,8069.09,34649.14,30723.0,22815.75
1133349.1317,-4600.72,19268.37,8166.93,34652.43,30764.54,22843.03
1133349.1337,-4617.69,19286.92,8263.59,34662.44,30808.26,22875.41
1133349.1357,-4631.0,19308.86,8361.1,34679.08,30861.57,22916.65
1133349.1377,-4625.13,19276.76,8299.92,34661.01,30829.05,22888.38
1133349.1397,-4602.0,19253.11,8196.78,34655.86,30782.13,22850.95
1133349.1417,-4581.74,19229.56,8088.16,34645.37,30731.4,22810.18
1133349.1437,-4572.01,19200.23,7953.84,34626.15,30663.4,22766.5
1133349.1457,-4578.54,19236.76,8029.89,34647.56,30701.16,22797.73
1133349.1477,-4587.22,19273.0,8150.05,34666.97,30761.44,22839.02
1133349.1497,-4593.37,19299.27,8247.38,34680.75,30811.5,22873.45
1133349.1517,-4610.01,19318.87,8356.95,34691.72,30865.01,22914.84
1133349.1537,-4621.74,19294.22,8345.03,34675.32,30860.86,22907.16
1133349.1557,-4615.02,19253.54,8225.01,34651.76,30797.01,22857.91
1133349.1577,-4604.72,19228.08,8125.83,34639.79,30747.23,22822.29
1133349.1597,-4586.22,19190.5,7974.53,34618.86,30672.79,22773.94
1133349.1617,-4580.45,19208.05,7978.25,34626.87,30675.13,22779.99
1133349.1637,-4594.76,19249.82,8101.37,34648.33,30734.88,22824.86
1133349.1657,-4607.63,19272.71,8203.6,34659.68,30784.42,22862.39
1133349.1677,-4619.12,19296.55,8305.26,34675.08,30837.35,22905.64
1133349.1697,-4631.57,19295.41,8357.43,34672.12,30864.62,22922.23
1133349.1717,-4618.5,19254.35,8249.19,34644.8,30808.55,22879.27
1133349.1737,-4601.57,19226.12,8150.24,34631.97,30757.67,22842.17
1133349.1757,-4591.99,19189.5,8014.16,34616.67,30689.67,22795.06
1133349.1777,-4579.93,19190.08,7953.79,34621.53,30661.3,22782.61
1133349.1797,-4585.36,19234.33,8065.27,34641.79,30714.9,22817.66
1133349.1817,-4592.94,19267.85,8181.76,34657.91,30770.97,22854.47
1133349.1837,-4595.28,19291.45,8268.26,34673.89,30816.84,22889.28
1133349.1857,-4614.78,19308.81,8372.78,34688.0,30877.88,22930.05
1133349.1877,-4614.74,19268.9,8295.68,34662.06,30838.21,22896.2
1133349.1897,-4609.92,19230.94,8181.86,34638.27,30776.22,22843.27
1133349.1917,-4600.48,19201.38,8062.32,34623.01,30714.94,22800.4
1133349.1937,-4589.8,19178.82,7946.3,34612.95,30656.63,22770.65
1133349.1957,-4592.61,19217.54,8014.87,34637.55,30693.73,22800.35
1133349.1977,-4594.28,19255.69,8140.9,34655.77,30756.62,22842.46
1133349.1997,-4601.43,19271.76,8221.91,34662.97,30793.48,22870.73
1133349.2017,-4616.55,19297.27,8343.36,34676.6,30858.9,22916.46
1133349.2037,-4620.17,19274.43,8326.58,34663.82,30850.94,22907.88
1133349.2057,-4615.83,19235.9,8216.0,34644.04,30796.01,22867.54
1133349.2077,-4607.49,19204.95,8101.51,34624.34,30735.4,22821.48
1133349.2097,-4599.52,19175.01,7971.14,34609.61,30669.93,22779.47
1133349.2117,-4590.37,19195.7,7968.57,34625.3,30671.27,22791.44
1133349.2137,-4590.75,19249.63,8106.66,34656.72,30746.37,22847.8
1133349.2157,-4597.33,19272.62,8197.69,34666.69,30787.38,22876.27
1133349.2177,-4618.5,19292.64,8305.22,34672.84,30838.06,22908.98
1133349.2197,-4622.32,19290.07,8348.99,34668.59,30857.71,22916.94
1133349.2217,-4605.15,19254.5,8257.2,34650.62,30812.55,22880.6
1133349.2237,-4593.23,19221.07,8139.61,34635.26,30752.23,22829.73
1133349.2257,-4580.12,19198.85,8026.84,34626.77,30697.78,22791.25
1133349.2277,-4573.49,19188.17,7946.97,34621.77,30657.96,22771.08
1133349.2297,-4582.02,19235.9,8068.37,34648.9,30720.29,22819.04
1133349.2317,-4593.13,19269.13,8173.66,34664.64,30767.97,22852.42
1133349.2337,-4606.53,19296.03,8277.42,34678.37,30820.37,22888.62
1133349.2357,-4615.74,19303.32,8359.48,34682.42,30865.48,22912.7
1133349.2377,-4610.21,19265.42,8295.49,34658.63,30831.05,22879.08
1133349.2397,-4598.19,19226.84,8170.75,34635.79,30766.44,22827.91
1133349.2417,-4588.13,19205.76,8069.61,34627.2,30717.38,22794.96
1133349.2437,-4575.21,19179.63,7941.2,34617.81,30655.1,22761.59
1133349.2457,-4581.17,19224.26,8022.02,34649.04,30704.41,22806.93
1133349.2477,-4593.66,19256.74,8137.89,34663.3,30757.34,22844.03
1133349.2497,-4611.4,19273.43,8225.82,34667.69,30799.2,22869.78
1133349.2517,-4625.61,19290.12,8325.34,34673.98,30849.13,22902.01
1133349.2537,-4627.61,19278.43,8326.96,34665.49,30850.89,22899.58
1133349.2557,-4611.06,19235.42,8204.56,34641.41,30786.57,22847.7
1133349.2577,-4590.75,19212.39,8107.76,34632.07,30739.79,22814.99
1133349.2597,-4569.77,19181.16,7967.04,34618.81,30674.32,22777.13
1133349.2617,-4568.39,19200.52,7969.76,34633.31,30680.76,22785.14
1133349.2637,-4582.31,19244.72,8099.56,34655.38,30740.22,22827.34
1133349.2657,-4598.52,19267.56,8196.78,34664.83,30785.95,22858.53
1133349.2677,-4609.68,19287.78,8292.29,34673.65,30835.78,22892.57
1133349.2697,-4618.6,19288.59,8345.75,34674.31,30866.63,22911.69
1133349.2717,-4619.12,19248.49,8247.52,34651.9,30813.51,22872.26
1133349.2737,-4617.69,19218.92,8140.76,34636.5,30756.81,22830.44
1133349.2757,-4592.18,19186.93,8009.34,34617.57,30690.86,22783.71
1133349.2777,-4570.06,19179.35,7931.66,34616.43,30652.91,22766.12
1133349.2797,-4578.88,19218.49,8044.01,34641.22,30711.89,22808.13
1133349.2817,-4584.55,19253.21,8156.44,34661.25,30768.59,22847.13
1133349.2837,-4596.57,19274.38,8256.29,34666.92,30812.7,22878.89
1133349.2857,-4612.26,19286.06,8346.37,34669.07,30853.47,22905.5
1133349.2877,-4609.44,19261.17,8290.24,34653.05,30827.81,22885.61
1133349.2897,-4603.15,19222.55,8169.13,34631.69,30764.63,22835.5
1133349.2917,-4598.43,19188.17,8054.97,34617.57,30704.41,22790.63
1133349.2937,-4582.02,19162.56,7924.13,34607.84,30640.51,22751.29
1133349.2957,-4586.03,19206.81,8002.71,34635.21,30683.9,22787.62
1133349.2977,-4604.24,19244.63,8122.4,34654.43,30743.36,22828.53
1133349.2997,-4605.72,19267.94,8220.1,34661.77,30789.28,22858.19
1133349.3017,-4616.74,19281.53,8324.34,34667.02,30838.11,22889.04
1133349.3037,-4617.55,19263.56,8320.57,34656.0,30834.25,22881.94
1133349.3057,-4611.97,19221.74,8196.55,34631.97,30770.21,22834.26
1133349.3077,-4594.09,19204.19,8105.52,34627.3,30729.92,22806.69
1133349.3097,-4574.54,19172.38,7966.33,34613.9,30662.02,22766.5
1133349.3117,-4582.07,19187.31,7969.14,34625.92,30664.59,22774.6
1133349.3137,-4592.85,19230.18,8090.78,34645.56,30724.29,22816.8
1133349.3157,-4601.38,19253.69,8191.63,34655.38,30772.07,22846.99
1133349.3177,-4615.69,19278.91,8289.39,34669.93,30821.76,22882.08
1133349.3197,-4623.7,19288.21,8357.14,34674.93,30861.19,22907.88
1133349.3217,-4610.01,19242.91,8249.81,34647.09,30806.59,22862.82
1133349.3237,-4591.27,19214.58,8148.96,34635.55,30757.86,22825.67
1133349.3257,-4576.45,19183.78,8015.59,34619.72,30693.01,22780.37
1133349.3277,-4571.77,19175.05,7943.92,34616.67,30657.2,22762.73
1133349.3297,-4582.45,19217.3,8051.3,34642.03,30711.94,22807.27
1133349.3317,-4597.71,19246.15,8165.98,34652.24,30765.06,22841.46
1133349.3337,-4607.73,19262.51,8245.42,34658.39,30802.68,22868.59
1133349.3357,-4624.08,19285.01,8356.24,34672.46,30861.0,22910.55
1133349.3377,-4629.42,19247.82,8284.81,34649.14,30824.24,22876.79
1133349.3397,-4624.65,19219.21,8180.29,34636.22,30774.36,22836.26
1133349.3417,-4606.3,19190.22,8062.55,34623.34,30716.76,22792.01
1133349.3437,-4583.45,19163.8,7940.29,34610.13,30656.48,22757.34
1133349.3457,-4579.31,19196.23,8000.95,34631.88,30688.91,22787.81
1133349.3477,-4588.6,19235.99,8131.65,34654.29,30748.75,22833.06
1133349.3497,-4596.19,19255.45,8214.19,34657.15,30782.8,22857.19
1133349.3517,-4612.73,19279.82,8334.21,34667.88,30844.55,22897.68
1133349.3537,-4617.17,19263.08,8325.01,34656.81,30842.4,22891.52
1133349.3557,-4611.92,19229.37,8216.76,34637.74,30785.85,22846.99
1133349.3577,-4594.99,19203.14,8104.66,34626.77,30732.3,22802.5
1133349.3597,-4581.17,19174.82,7980.87,34614.85,30675.84,22768.74
1133349.3617,-4579.5,19192.65,7970.91,34627.73,30672.51,22775.65
1133349.3637,-4586.41,19237.43,8103.66,34649.04,30730.68,22820.95
1133349.3657,-4592.28,19256.36,8194.11,34651.24,30768.26,22846.18
1133349.3677,-4605.82,19280.25,8307.6,34666.59,30826.38,22886.95
1133349.3697,-4612.78,19280.01,8355.28,34662.25,30852.13,22898.58
1133349.3717,-4605.63,19243.58,8259.68,34642.03,30805.54,22858.77
1133349.3737,-4596.09,19210.44,8139.61,34625.58,30744.27,22810.7
1133349.3757,-4582.83,19188.74,8030.42,34616.62,30692.68,22778.04
1133349.3777,-4571.82,19175.63,7944.73,34611.47,30647.04,22757.58
1133349.3797,-4578.45,19221.74,8060.27,34638.98,30709.46,22807.46
1133349.3817,-4586.74,19250.11,8163.88,34651.05,30757.48,22840.84
1133349.3837,-4598.81,19275.0,8269.74,34665.11,30810.41,22879.75
1133349.3857,-4622.75,19288.3,8359.48,34673.5,30858.09,22911.12
1133349.3877,-4621.94,19255.64,8303.36,34656.1,30830.53,22888.47
1133349.3897,-4610.87,19211.1,8176.04,34632.02,30763.2,22836.26
1133349.3917,-4598.0,19190.46,8077.57,34621.39,30715.28,22799.21
1133349.3937,-4585.93,19160.46,7944.78,34606.65,30650.09,22759.2
1133349.3957,-4597.33,19194.8,8012.87,34626.68,30684.52,22789.91
1133349.3977,-4603.96,19232.51,8132.89,34643.56,30741.65,22826.67
1133349.3997,-4609.39,19255.31,8229.4,34650.33,30784.99,22856.0
1133349.4017,-4629.18,19282.2,8338.26,34666.83,30841.93,22893.81
1133349.4037,-4617.21,19279.58,8351.18,34668.64,30856.09,22900.87
1133349.4057,-4582.93,19245.05,8235.5,34647.18,30796.58,22854.04
1133349.4077,-4576.06,19216.3,8136.46,34635.74,30743.79,22812.8
1133349.4097,-4559.8,19181.87,7988.45,34616.38,30670.41,22762.06
1133349.4117,-4545.74,19204.57,7987.02,34628.59,30674.32,22771.31
1133349.4137,-4554.56,19250.06,8118.77,34652.52,30739.5,22823.34
1133349.4157,-4561.38,19278.81,8220.72,34661.49,30784.75,22858.91
1133349.4177,-4573.92,19300.03,8314.9,34669.21,30832.82,22890.28
1133349.4197,-4578.5,19309.48,8377.27,34671.12,30865.53,22909.64
1133349.4217,-4558.28,19276.29,8286.67,34648.8,30816.51,22869.64
1133349.4237,-4541.92,19249.87,8182.34,34635.74,30760.86,22826.29
1133349.4257,-4522.61,19225.08,8059.03,34623.25,30699.07,22785.57
1133349.4277,-4511.45,19216.25,7976.77,34622.48,30660.16,22768.79
1133349.4297,-4509.74,19268.71,8093.64,34653.33,30722.14,22814.71
1133349.4317,-4509.5,19303.99,8206.65,34670.88,30777.22,22857.0
1133349.4337,-4508.59,19333.27,8306.93,34682.9,30827.34,22893.57
1133349.4357,-4514.5,19354.2,8406.59,34692.24,30877.78,22926.14
1133349.4377,-4510.31,19322.59,8352.19,34671.84,30848.65,22897.44
1133349.4397,-4487.47,19288.97,8235.26,34650.52,30782.18,22844.7
1133349.4417,-4470.06,19266.37,8128.41,34636.64,30726.01,22802.69
1133349.4437,-4446.94,19243.15,7997.47,34627.3,30666.78,22769.02
1133349.4457,-4445.03,19278.05,8067.47,34650.23,30705.26,22800.59
1133349.4477,-4453.56,19315.82,8186.53,34665.16,30757.48,22834.69
1133349.4497,-4457.95,19339.75,8283.19,34672.36,30798.82,22861.63
1133349.4517,-4468.2,19366.31,8389.47,34683.85,30854.61,22899.92
1133349.4537,-4476.4,19351.87,8393.05,34675.27,30859.9,22900.3
1133349.4557,-4462.29,19314.24,8277.13,34655.29,30803.06,22858.81
1133349.4577,-4447.89,19289.97,8177.47,34644.37,30752.71,22818.62
1133349.4597,-4426.67,19259.46,8034.71,34630.54,30681.52,22777.89
1133349.4617,-4425.38,19277.62,8035.33,34647.52,30688.38,22792.77
1133349.4637,-4430.1,19322.35,8159.02,34670.02,30750.9,22831.73
1133349.4657,-4432.54,19350.1,8261.59,34677.75,30796.01,22858.15
1133349.4677,-4443.46,19374.52,8357.57,34690.57,30844.12,22892.43
1133349.4697,-4456.19,19377.42,8423.14,34692.01,30881.12,22915.65
1133349.4717,-4450.37,19331.41,8320.52,34671.22,30829.67,22874.45
1133349.4737,-4442.88,19299.18,8219.77,34660.44,30779.56,22834.21
1133349.4757,-4432.58,19266.89,8086.87,34642.61,30713.85,22789.15
1133349.4777,-4424.67,19256.55,8009.48,34634.07,30672.84,22766.21
1133349.4797,-4435.25,19296.7,8112.86,34656.62,30724.86,22804.55
1133349.4817,-4453.52,19328.17,8232.79,34680.94,30789.9,22852.33
1133349.4836,-4464.1,19344.43,8309.79,34687.43,30826.95,22879.79
1133349.4856,-4477.26,19364.41,8418.7,34695.01,30882.27,22918.42
1133349.4876,-4479.84,19329.98,8358.05,34672.65,30846.98,22889.86
1133349.4896,-4469.97,19297.17,8250.95,34658.58,30791.29,22849.85
1133349.4916,-4459.95,19269.37,8135.27,34649.14,30736.45,22812.51
1133349.4936,-4456.9,19242.15,8010.34,34637.55,30678.23,22779.13
1133349.4956,-4461.53,19272.47,8064.99,34658.01,30708.75,22806.84
1133349.4976,-4469.87,19309.33,8188.96,34676.03,30769.4,22846.03
1133349.4996,-4480.27,19326.74,8269.41,34680.32,30806.74,22870.02
1133349.5016,-4499.29,19352.2,8392.29,34692.63,30872.16,22914.22
1133349.5036,-4512.17,19331.27,8384.56,34677.18,30865.39,22904.07
1133349.5056,-4513.36,19287.64,8270.84,34651.28,30805.07,22857.38
1133349.5076,-4511.69,19255.35,8151.68,34636.12,30747.85,22809.7
1133349.5096,-4490.81,19225.41,8026.84,34623.39,30689.77,22772.65
1133349.5116,-4480.55,19235.18,8010.05,34634.69,30682.04,22776.42
1133349.5136,-4494.48,19279.67,8140.47,34661.01,30745.41,22825.63
1133349.5156,-4505.97,19302.28,8232.26,34668.97,30787.09,22850.33
1133349.5176,-4521.56,19324.5,8345.08,34680.85,30840.31,22886.09
1133349.5196,-4534.1,19329.6,8401.06,34681.71,30874.69,22907.55
1133349.5216,-4536.49,19288.83,8305.79,34656.96,30827.72,22868.83
1133349.5236,-4530.48,19253.92,8185.77,34639.12,30765.63,22822.34
1133349.5256,-4524.09,19226.7,8073.86,34625.34,30708.56,22785.14
1133349.5276,-4511.4,19215.16,7984.83,34620.0,30665.59,22762.11
1133349.5296,-4514.17,19256.98,8097.6,34645.04,30722.72,22806.03
1133349.5316,-4527.47,19279.29,8195.12,34655.0,30768.97,22836.12
1133349.5336,-4544.83,19302.42,8291.29,34662.92,30812.93,22868.11
1133349.5356,-4556.99,19315.77,8387.81,34668.64,30860.95,22901.39
1133349.5376,-4552.32,19284.78,8337.93,34651.9,30833.58,22878.27
1133349.5396,-4540.49,19246.96,8212.66,34634.21,30769.4,22831.16
1133349.5416,-4533.01,19228.08,8117.01,34625.82,30726.29,22799.88
1133349.5436,-4521.8,19198.23,7980.97,34612.56,30663.64,22760.35
1133349.5456,-4526.81,19228.89,8042.34,34634.55,30698.54,22790.96
1133349.5476,-4540.25,19264.41,8161.02,34653.38,30758.96,22831.06
1133349.5496,-4555.75,19283.82,8254.1,34660.3,30800.06,22859.86
1133349.5516,-4570.91,19306.28,8356.86,34671.26,30851.18,22894.34
1133349.5536,-4579.45,19293.5,8366.06,34662.78,30856.76,22896.15
1133349.5556,-4569.72,19249.39,8247.33,34640.36,30794.58,22851.23
1133349.5576,-4561.38,19222.69,8146.86,34626.49,30742.46,22808.6
1133349.5596,-4548.65,19185.69,8001.9,34604.84,30669.36,22759.01
1133349.5616,-4541.3,19201.33,7991.98,34619.29,30671.03,22770.88
1133349.5636,-4549.89,19247.49,8121.35,34645.94,30736.97,22820.62
1133349.5656,-4561.52,19272.38,8223.34,34658.05,30783.51,22852.85
1133349.5676,-4576.64,19292.4,8317.66,34667.88,30831.01,22888.71
1133349.5696,-4590.13,19294.41,8376.5,34665.4,30862.1,22904.54
1133349.5716,-4582.74,19253.45,8283.33,34642.41,30814.41,22863.63
1133349.5736,-4571.87,19226.6,8176.38,34631.21,30763.49,22827.01
1133349.5756,-4556.61,19197.8,8053.78,34620.58,30705.65,22789.39
1133349.5776,-4547.6,19188.36,7965.23,34619.62,30662.49,22770.79
1133349.5796,-4560.19,19229.65,8070.9,34644.23,30719.09,22813.9
1133349.5816,-4570.91,19258.55,8180.91,34657.39,30768.54,22850.18
1133349.5836,-4583.65,19281.1,8280.42,34666.88,30818.13,22886.09
1133349.5856,-4603.34,19298.7,8377.36,34673.27,30867.72,22913.6
1133349.5876,-4609.63,19270.57,8324.91,34650.23,30837.3,22887.85
1133349.5896,-4595.8,19225.98,8200.07,34625.25,30770.5,22839.41
1133349.5916,-4578.88,19197.85,8095.17,34617.14,30721.19,22805.03
1133349.5936,-4559.85,19172.48,7959.56,34608.46,30658.68,22767.26
1133349.5956,-4566.53,19208.58,8020.78,34629.21,30690.86,22795.92
1133349.5976,-4578.88,19243.62,8135.61,34647.28,30746.08,22835.35
1133349.5996,-4583.12,19263.41,8230.4,34654.38,30790.14,22866.54
1133349.6016,-4592.04,19284.44,8336.31,34667.07,30846.79,22903.4
1133349.6036,-4596.66,19271.14,8345.75,34655.05,30852.04,22899.44
1133349.6056,-4589.65,19230.42,8221.91,34627.54,30786.42,22849.23
1133349.6076,-4581.31,19208.53,8126.07,34619.38,30739.26,22814.9
1133349.6096,-4568.05,19174.67,7981.25,34603.89,30666.07,22768.79
1133349.6116,-4569.01,19187.17,7967.23,34613.76,30662.49,22776.22
1133349.6136,-4577.54,19230.65,8089.59,34636.5,30723.29,22819.9
1133349.6156,-4590.32,19256.07,8194.3,34645.37,30770.35,22849.09
1133349.6176,-4599.38,19276.62,8289.05,34656.05,30813.89,22880.22
1133349.6196,-4610.63,19283.68,8362.1,34657.29,30854.32,22905.26
1133349.6216,-4602.62,19241.0,8260.06,34630.06,30801.87,22862.72
1133349.6236,-4592.99,19213.39,8159.21,34621.39,30750.42,22827.82
1133349.6256,-4588.46,19181.64,8028.56,34607.99,30684.57,22782.42
1133349.6276,-4576.45,19172.24,7946.06,34608.56,30647.04,22764.92
1133349.6296,-4577.49,19216.4,8048.25,34634.55,30698.92,22801.83
1133349.6316,-4588.32,19249.44,8169.08,34650.9,30758.38,22842.03
1133349.6336,-4594.47,19268.71,8246.23,34654.76,30790.95,22864.39
1133349.6356,-4611.21,19293.93,8359.05,34668.69,30851.42,22903.59
1133349.6376,-4615.16,19260.22,8299.97,34647.33,30819.28,22877.98
1133349.6396,-4606.1,19226.93,8190.63,34629.78,30761.39,22832.3
1133349.6416,-4590.7,19201.28,8077.19,34620.34,30705.84,22791.1
1133349.6436,-4572.82,19179.3,7957.89,34615.33,30652.67,22764.26
1133349.6456,-4571.82,19213.54,8010.2,34638.79,30683.71,22792.44
1133349.6476,-4580.78,19252.78,8140.37,34658.82,30749.61,22840.07
1133349.6496,-4584.6,19270.66,8221.77,34666.02,30786.28,22865.25
1133349.6516,-4598.9,19301.27,8345.75,34679.46,30847.27,22907.59
1133349.6536,-4609.06,19284.58,8345.8,34663.2,30841.64,22896.63
1133349.6556,-4599.52,19242.0,8235.03,34639.22,30782.27,22854.33
1133349.6576,-4582.36,19211.96,8119.3,34625.92,30723.38,22811.13
1133349.6596,-4568.58,19183.73,7991.7,34615.9,30666.55,22776.13
1133349.6616,-4568.91,19190.46,7962.13,34624.72,30654.72,22771.36
1133349.6636,-4583.41,19233.66,8091.16,34646.42,30717.52,22814.51
1133349.6656,-4590.51,19258.41,8185.58,34657.53,30760.96,22850.9
1133349.6676,-4602.0,19288.49,8302.02,34673.93,30820.56,22894.77
1133349.6696,-4612.26,19291.12,8361.72,34673.55,30851.42,22909.88
1133349.6716,-4607.49,19256.16,8273.41,34653.62,30808.45,22873.21
1133349.6736,-4598.24,19220.74,8150.91,34633.69,30747.8,22824.43
1133349.6756,-4588.22,19195.13,8039.86,34622.24,30693.01,22788.38
1133349.6776,-4576.25,19182.16,7944.39,34620.24,30648.86,22767.93
1133349.6796,-4583.55,19225.89,8053.97,34646.94,30704.41,22812.7
1133349.6816,-4589.13,19256.26,8159.83,34657.1,30752.28,22847.37
1133349.6836,-4595.95,19278.48,8257.91,34665.3,30797.44,22880.46
1133349.6856,-4610.63,19289.69,8350.66,34666.02,30843.17,22905.73
1133349.6876,-4611.16,19263.03,8306.36,34651.71,30820.42,22890.14
1133349.6896,-4606.01,19226.84,8181.29,34634.17,30756.91,22843.03
1133349.6916,-4599.43,19204.33,8081.82,34628.4,30714.8,22808.55
1133349.6936,-4581.21,19173.48,7942.92,34612.9,30646.76,22767.93
1133349.6956,-4579.16,19207.29,8004.95,34635.69,30676.32,22801.16
1133349.6976,-4591.51,19245.05,8126.98,34653.19,30732.73,22837.83
1133349.6996,-4599.09,19270.47,8222.25,34660.77,30778.13,22871.93
1133349.7016,-4607.53,19291.88,8325.63,34670.6,30832.87,22907.12
1133349.7036,-4613.92,19278.39,8338.26,34663.68,30838.21,22902.11
1133349.7056,-4611.4,19234.95,8217.24,34641.08,30776.46,22853.23
1133349.7076,-4606.15,19211.49,8120.2,34631.88,30730.39,22818.95
1133349.7096,-4589.56,19176.58,7978.92,34614.42,30664.02,22777.94
1133349.7116,-4581.55,19190.89,7959.8,34626.44,30656.29,22783.57
1133349.7136,-4588.56,19238.62,8092.83,34654.91,30719.33,22829.77
1133349.7156,-4591.04,19265.37,8194.3,34665.64,30769.02,22864.06
1133349.7176,-4603.2,19282.15,8288.29,34670.64,30814.27,22893.15
1133349.7196,-4612.59,19286.73,8356.19,34667.97,30845.84,22908.02
1133349.7216,-4606.2,19246.77,8266.31,34640.55,30793.48,22863.87
1133349.7236,-4594.33,19217.49,8155.25,34630.21,30739.5,22822.29
1133349.7256,-4583.98,19188.17,8031.18,34619.05,30683.14,22784.38
1133349.7276,-4576.49,19178.96,7938.77,34618.43,30642.94,22765.11
1133349.7296,-4581.79,19224.03,8045.44,34644.42,30697.64,22808.32
1133349.7316,-4591.42,19254.93,8154.15,34660.63,30749.37,22846.18
1133349.7336,-4600.57,19275.62,8251.95,34671.5,30797.2,22880.51
1133349.7356,-4609.73,19293.84,8353.85,34678.7,30848.98,22913.17
1133349.7376,-4610.44,19268.52,8311.7,34664.44,30828.38,22896.82
1133349.7396,-4603.58,19230.18,8191.16,34645.47,30767.16,22852.04
1133349.7416,-4585.31,19210.87,8090.69,34638.22,30721.48,22818.0
1133349.7436,-4575.59,19173.82,7945.2,34615.71,30645.47,22771.36
1133349.7456,-4575.06,19210.72,8005.05,34639.31,30680.28,22803.93
1133349.7476,-4576.54,19250.92,8127.79,34658.1,30737.07,22842.79
1133349.7496,-4588.7,19269.99,8224.06,34663.97,30778.51,22872.36
1133349.7516,-4610.11,19293.98,8330.3,34675.27,30833.01,22907.64
1133349.7536,-4623.7,19280.15,8348.37,34663.4,30841.02,22903.16
1133349.7556,-4611.92,19238.14,8229.16,34644.18,30781.27,22860.58
1133349.7576,-4591.13,19209.2,8127.64,34627.97,30727.34,22817.42
1133349.7596,-4571.58,19170.33,7978.44,34607.32,30652.15,22767.64
1133349.7616,-4565.53,19183.49,7961.18,34619.96,30648.33,22776.46
1133349.7636,-4583.07,19230.8,8081.1,34645.13,30710.99,22821.1
1133349.7656,-4598.62,19256.88,8188.2,34655.15,30757.34,22852.95
1133349.7676,-4602.39,19277.1,8281.37,34664.97,30804.07,22884.37
1133349.7696,-4609.92,19285.25,8358.29,34667.83,30845.79,22910.17
1133349.7716,-4606.49,19238.9,8256.2,34642.65,30792.86,22866.78
1133349.7736,-4607.39,19207.34,8148.05,34626.96,30735.83,22820.19
1133349.7756,-4599.09,19174.53,8017.59,34609.27,30668.55,22776.61
1133349.7776,-4583.41,19159.99,7927.37,34603.5,30627.16,22757.01
1133349.7796,-4592.94,19200.61,8025.22,34630.06,30678.61,22797.63
1133349.7816,-4605.82,19234.85,8146.95,34643.23,30735.69,22837.64
1133349.7836,-4606.53,19251.35,8223.49,34652.86,30774.17,22864.68
1133349.7856,-4616.69,19274.14,8342.46,34665.54,30835.11,22907.16
1133349.7876,-4618.84,19240.1,8290.91,34643.84,30805.78,22879.75
1133349.7896,-4614.78,19204.67,8179.76,34623.82,30748.94,22834.21
1133349.7916,-4605.58,19177.63,8061.79,34612.37,30693.2,22791.67
1133349.7936,-4586.89,19152.88,7938.15,34604.74,30636.5,22759.68
1133349.7956,-4590.23,19182.59,7982.87,34627.68,30663.64,22787.48
1133349.7976,-4608.82,19222.98,8113.58,34653.62,30731.11,22834.92
1133349.7996,-4613.59,19239.57,8199.74,34662.73,30771.26,22862.58
1133349.8016,-4629.18,19267.04,8324.48,34676.41,30833.06,22906.74
1133349.8036,-4632.47,19255.31,8332.87,34666.4,30837.21,22905.11
1133349.8056,-4622.6,19216.68,8224.87,34644.32,30782.46,22861.58
1133349.8076,-4603.24,19187.64,8110.33,34626.96,30723.15,22812.04
1133349.8096,-4581.17,19162.47,7984.31,34611.99,30662.21,22772.93
1133349.8116,-4572.01,19169.24,7949.07,34614.47,30642.89,22771.03
1133349.8136,-4578.54,19216.83,8082.77,34642.51,30709.7,22816.09
1133349.8156,-4592.51,19239.95,8177.85,34651.95,30750.85,22844.98
1133349.8176,-4606.53,19268.8,8291.15,34667.54,30809.98,22888.09
1133349.8196,-4613.73,19276.62,8360.43,34670.07,30846.41,22911.46
1133349.8216,-4608.58,19241.57,8275.46,34648.71,30803.16,22873.79
1133349.8236,-4602.62,19202.14,8151.48,34633.26,30742.12,22826.05
1133349.8256,-4590.56,19174.86,8041.05,34621.96,30689.96,22790.34
1133349.8276,-4576.64,19158.08,7936.96,34614.71,30638.13,22765.07
1133349.8296,-4582.45,19205.62,8045.44,34643.32,30696.11,22807.93
1133349.8316,-4592.99,19234.85,8155.39,34654.24,30745.75,22838.98
1133349.8336,-4605.82,19256.12,8254.72,34665.54,30793.58,22872.83
1133349.8356,-4613.02,19277.86,8359.96,34680.37,30851.65,22911.79
1133349.8376,-4611.68,19250.49,8319.09,34661.58,30830.05,22892.43
1133349.8396,-4601.81,19209.2,8189.39,34638.36,30762.39,22840.07
1133349.8416,-4596.9,19186.36,8088.88,34626.01,30712.08,22801.02
1133349.8436,-4583.93,19153.26,7947.4,34609.27,30644.47,22760.35
1133349.8456,-4579.97,19184.02,7998.47,34631.49,30673.46,22789.77
1133349.8476,-4593.66,19216.49,8120.54,34647.14,30727.82,22824.67
1133349.8496,-4607.49,19236.47,8215.62,34653.72,30768.59,22853.23
1133349.8516,-4620.03,19260.31,8322.14,34665.59,30825.09,22890.19
1133349.8536,-4627.04,19254.83,8343.46,34664.3,30841.78,22893.29
1133349.8556,-4616.69,19214.58,8227.02,34639.41,30780.7,22845.99
1133349.8576,-4603.53,19188.98,8127.64,34629.4,30730.54,22808.7
1133349.8596,-4587.89,19154.22,7988.07,34612.9,30660.3,22765.73
1133349.8616,-4582.69,19163.32,7959.61,34621.96,30649.38,22765.78
1133349.8636,-4590.32,19213.06,8089.5,34646.8,30717.04,22811.94
1133349.8656,-4604.1,19239.57,8190.06,34655.67,30762.49,22842.36
1133349.8676,-4614.12,19258.31,8289.81,34669.83,30810.6,22877.46
1133349.8696,-4632.19,19264.08,8362.34,34672.93,30849.6,22900.63
1133349.8716,-4630.28,19227.22,8277.85,34648.42,30808.55,22866.06
1133349.8736,-4611.3,19194.84,8162.79,34631.45,30750.95,22821.29
1133349.8756,-4591.7,19161.18,8039.24,34610.23,30688.67,22777.56
1133349.8776,-4579.74,19143.01,7936.38,34603.12,30636.74,22755.91
1133349.8796,-4589.13,19188.45,8043.39,34630.06,30692.53,22798.35
1133349.8816,-4597.81,19224.55,8156.63,34645.23,30744.89,22835.31
1133349.8836,-4607.01,19247.68,8260.49,34657.34,30793.72,22870.45
1133349.8856,-4619.31,19265.94,8361.72,34668.88,30847.12,22905.35
1133349.8876,-4621.12,19240.48,8325.63,34655.67,30831.82,22887.42
1133349.8896,-4604.05,19207.29,8210.95,34641.08,30776.79,22843.51
1133349.8916,-4590.04,19184.21,8112.0,34630.97,30730.01,22809.46
1133349.8936,-4582.69,19149.5,7961.75,34612.37,30656.58,22766.59
1133349.8956,-4594.9,19181.64,8010.34,34630.49,30686.38,22793.96
1133349.8976,-4606.68,19218.21,8128.83,34647.28,30738.5,22831.16
1133349.8996,-4611.49,19242.81,8231.93,34657.2,30784.09,22866.2
1133349.9016,-4619.79,19264.89,8337.4,34669.21,30841.21,22904.92
1133349.9036,-4623.99,19256.98,8362.39,34664.3,30859.09,22915.89
1133349.9056,-4615.07,19215.87,8243.13,34642.22,30797.15,22869.11
1133349.9076,-4611.59,19187.64,8140.47,34628.44,30743.6,22825.15
1133349.9096,-4595.09,19149.35,7992.41,34606.08,30669.6,22774.65
1133349.9116,-4580.93,19158.46,7965.52,34614.42,30661.44,22778.9
1133349.9136,-4593.95,19200.04,8084.68,34633.21,30717.14,22820.14
1133349.9156,-4615.74,19230.18,8196.97,34648.99,30770.88,22854.95
1133349.9176,-4624.32,19253.92,8291.01,34663.49,30817.61,22889.57
1133349.9196,-4631.28,19267.85,8379.41,34670.45,30866.58,22921.09
1133349.9216,-4616.59,19229.61,8286.19,34650.23,30820.8,22887.47
1133349.9236,-4601.53,19200.85,8179.81,34636.93,30772.83,22852.23
1133349.9256,-4590.23,19168.28,8051.59,34622.58,30712.08,22810.46
1133349.9276,-4580.07,19156.55,7959.03,34618.05,30667.74,22789.19
1133349.9296,-4589.89,19195.03,8052.06,34638.27,30712.18,22819.9
1133349.9316,-4604.34,19225.84,8176.66,34654.57,30769.88,22856.95
1133349.9336,-4608.92,19240.29,8249.52,34659.29,30802.92,22885.42
1133349.9356,-4625.46,19266.75,8370.83,34675.51,30868.1,22931.63
1133349.9376,-4628.47,19240.62,8328.25,34658.82,30846.74,22911.5
1133349.9396,-4615.78,19205.48,8216.1,34641.17,30789.9,22866.92
1133349.9416,-4601.53,19174.96,8097.98,34622.05,30725.72,22819.62
1133349.9436,-4587.27,19147.59,7967.28,34609.94,30663.21,22784.38
1133349.9456,-4584.17,19175.01,8004.86,34630.45,30688.24,22808.36
1133349.9476,-4596.04,19215.97,8137.18,34653.14,30754.95,22854.52
1133349.9496,-4606.1,19234.71,8220.86,34659.1,30791.48,22878.13
1133349.9516,-4621.6,19262.13,8341.93,34672.88,30850.32,22914.17
1133349.9536,-4625.27,19247.53,8353.43,34659.77,30852.61,22909.45
1133349.9556,-4617.55,19213.01,8254.29,34643.46,30803.59,22874.74
1133349.9576,-4616.31,19186.21,8140.23,34629.83,30746.61,22829.92
1133349.9596,-4603.82,19158.56,8014.16,34617.81,30686.91,22793.49
1133349.9616,-4589.27,19159.84,7968.71,34624.77,30668.12,22787.43
1133349.9636,-4590.65,19207.53,8094.45,34649.81,30734.88,22836.12
1133349.9656,-4598.28,19228.84,8188.39,34657.15,30775.36,22861.34
1133349.9676,-4611.35,19252.73,8298.16,34664.92,30829.0,22898.53
1133349.9696,-4623.18,19258.93,8370.31,34665.97,30865.72,22920.09
1133349.9716,-4616.31,19224.93,8290.2,34645.99,30822.81,22884.32
1133349.9736,-4603.43,19188.55,8165.07,34627.68,30757.34,22835.02
1133349.9756,-4598.33,19161.51,8050.92,34615.09,30700.21,22795.97
1133349.9776,-4592.66,19140.77,7939.91,34607.32,30646.61,22771.08
1133349.9796,-4599.91,19182.73,8040.43,34631.49,30699.4,22809.17
1133349.9816,-4608.54,19210.72,8148.15,34641.32,30747.66,22836.16
1133349.9836,-4618.84,19233.52,8247.9,34652.05,30795.63,22872.16
1133349.9856,-4633.62,19252.11,8350.99,34663.92,30851.46,22911.84
1133349.9876,-4632.24,19230.46,8318.9,34655.29,30839.45,22903.06
1133349.9896,-4617.69,19189.26,8195.07,34632.5,30775.74,22855.09
1133349.9916,-4605.1,19166.52,8095.5,34617.81,30727.06,22820.62
1133349.9936,-4596.04,19127.85,7947.73,34598.45,30657.53,22777.7
1133349.9956,-4602.29,19154.55,7985.5,34612.14,30673.22,22789.43
1133349.9976,-4611.64,19193.56,8108.28,34625.58,30722.14,22817.23
1133349.9996,-4618.41,19220.16,8203.41,34635.6,30764.54,22846.42
1133350.0016,-4634.81,19240.62,8307.79,34648.85,30818.75,22885.18
1133350.0036,-4640.29,19229.8,8334.26,34641.08,30835.68,22893.96
1133350.0056,-4628.09,19185.88,8219.48,34617.14,30778.08,22848.61
1133350.0076,-4615.4,19164.66,8120.97,34611.42,30733.11,22809.7
1133350.0096,-4607.15,19131.95,7983.35,34601.12,30668.98,22768.83
1133350.0116,-4610.59,19134.95,7944.25,34610.23,30654.05,22762.68
1133350.0136,-4621.08,19181.97,8073.0,34633.45,30716.85,22808.32
1133350.0156,-4624.32,19210.39,8175.42,34645.04,30765.58,22846.13
1133350.0176,-4634.91,19226.93,8269.02,34651.62,30811.89,22878.74
1133350.0196,-4647.35,19233.66,8340.17,34653.48,30849.13,22899.01
1133350.0216,-4642.77,19198.8,8259.44,34631.69,30808.02,22865.01
1133350.0236,-4623.51,19168.33,8143.52,34613.9,30746.51,22818.43
1133350.0256,-4609.01,19139.34,8026.79,34602.07,30690.05,22777.13
1133350.0276,-4601.05,19121.79,7919.12,34597.54,30639.13,22753.29
1133350.0296,-4616.79,19162.32,8020.07,34624.06,30694.25,22796.59
1133350.0316,-4626.18,19195.75,8137.61,34643.46,30749.85,22838.79
1133350.0336,-4633.14,19220.02,8240.61,34654.24,30798.01,22873.93
1133350.0356,-4647.35,19235.76,8339.31,34660.2,30849.13,22905.16
1133350.0376,-4647.54,19209.58,8304.26,34638.5,30827.57,22884.51
1133350.0396,-4635.05,19170.24,8178.19,34613.28,30761.96,22830.2
1133350.0416,-4622.75,19146.59,8076.14,34604.74,30714.18,22792.53
1133350.0436,-4609.68,19113.35,7927.56,34591.2,30644.13,22750.81
1133350.0456,-4609.3,19146.4,7971.43,34611.9,30673.13,22779.61
1133350.0476,-4615.74,19187.93,8095.79,34633.78,30733.26,22822.34
1133350.0496,-4626.04,19214.78,8196.69,34643.65,30778.7,22856.67
1133350.0516,-4640.39,19237.0,8303.21,34656.67,30829.72,22893.29
1133350.0536,-4643.58,19228.79,8334.45,34647.42,30843.55,22900.77
1133350.0556,-4633.52,19183.21,8210.8,34622.01,30778.89,22853.66
1133350.0576,-4624.22,19153.26,8108.57,34606.75,30728.01,22810.65
1133350.0596,-4609.25,19117.79,7960.08,34585.86,30654.53,22761.73
1133350.0616,-4601.0,19125.85,7929.47,34596.59,30640.32,22766.16
1133350.0636,-4610.11,19171.34,8053.16,34624.01,30701.74,22809.99
1133350.0656,-4625.99,19198.09,8164.93,34632.31,30750.09,22838.45
1133350.0676,-4638.48,19213.06,8250.71,34634.74,30789.43,22863.1
1133350.0696,-4651.17,19227.32,8343.08,34641.22,30839.26,22894.86
1133350.0716,-4643.25,19189.22,8255.05,34620.29,30795.86,22860.2
1133350.0736,-4636.43,19159.08,8146.67,34604.17,30741.17,22814.9
1133350.0756,-4625.23,19126.85,8015.3,34588.44,30676.75,22771.74
1133350.0776,-4614.54,19108.49,7914.73,34582.57,30628.73,22747.14
1133350.0796,-4620.98,19151.55,8007.58,34610.47,30678.71,22786.72
1133350.0816,-4628.37,19191.89,8137.51,34630.21,30741.08,22829.06
1133350.0836,-4635.38,19213.11,8216.86,34641.03,30781.51,22858.77
1133350.0856,-4647.3,19239.95,8340.41,34657.53,30847.74,22905.11
1133350.0876,-4645.16,19206.48,8294.87,34638.17,30823.66,22884.56
1133350.0896,-4643.01,19165.85,8176.28,34613.18,30759.1,22830.78
1133350.0916,-4629.8,19138.86,8061.12,34597.31,30702.4,22786.67
1133350.0936,-4606.77,19117.26,7938.05,34590.53,30647.81,22758.3
1133350.0956,-4597.47,19146.87,7971.14,34613.57,30670.07,22779.99
1133350.0976,-4607.87,19190.03,8102.13,34635.4,30735.64,22824.72
1133350.0996,-4621.32,19211.49,8185.58,34641.65,30774.02,22853.52
1133350.1016,-4638.24,19238.38,8309.27,34656.05,30836.87,22896.01
1133350.1036,-4650.83,19221.12,8327.49,34644.94,30842.78,22896.82
1133350.1056,-4639.67,19178.35,8222.29,34621.43,30787.85,22856.81
1133350.1076,-4621.08,19149.5,8108.19,34609.27,30730.87,22810.51
1133350.1096,-4606.96,19120.5,7980.3,34597.78,30671.12,22772.12
1133350.1116,-4605.34,19120.65,7929.23,34602.84,30650.52,22767.36
1133350.1136,-4619.79,19165.09,8056.07,34626.63,30712.89,22808.94
1133350.1156,-4630.85,19187.17,8149.67,34631.3,30752.04,22833.49
1133350.1176,-4642.01,19215.49,8261.06,34647.75,30810.31,22873.93
1133350.1196,-4655.46,19225.7,8339.07,34651.43,30852.7,22897.96
1133350.1216,-4648.4,19189.69,8257.25,34628.78,30809.69,22862.82
1133350.1236,-4641.39,19150.12,8130.69,34608.89,30743.03,22810.99
1133350.1256,-4637.58,19116.59,8013.44,34589.1,30679.85,22763.54
1133350.1276,-4616.07,19101.91,7902.53,34584.0,30626.59,22733.98
1133350.1296,-4605.72,19161.56,8015.97,34625.44,30692.91,22788.34
1133350.1316,-4618.79,19190.31,8127.17,34636.36,30746.03,22821.81
1133350.1336,-4633.62,19211.91,8220.2,34640.46,30784.47,22851.09
1133350.1356,-4648.26,19231.27,8324.72,34648.47,30837.83,22887.52
1133350.1376,-4651.59,19209.34,8294.87,34634.17,30821.57,22871.16
1133350.1396,-4643.44,19165.95,8166.98,34610.85,30754.95,22816.8
1133350.1416,-4624.32,19140.2,8068.75,34600.41,30706.65,22782.66
1133350.1436,-4604.05,19107.68,7925.75,34584.67,30636.5,22743.61
1133350.1456,-4611.92,19135.1,7959.08,34601.64,30654.1,22763.49
1133350.1476,-4631.71,19177.3,8088.21,34622.91,30715.61,22805.17
1133350.1496,-4643.39,19199.52,8183.24,34631.88,30756.48,22834.45
1133350.1516,-4652.69,19221.21,8284.47,34636.79,30806.45,22870.5
1133350.1536,-4650.16,19217.3,8313.61,34627.92,30821.99,22874.55
1133350.1556,-4639.15,19175.44,8202.55,34604.32,30765.73,22829.82
1133350.1576,-4632.28,19152.45,8100.8,34596.88,30715.99,22792.2
1133350.1596,-4619.12,19117.83,7963.56,34579.71,30649.62,22750.9
1133350.1616,-4616.4,19118.03,7911.25,34581.14,30626.92,22744.75
1133350.1636,-4623.94,19160.75,8035.47,34601.45,30686.0,22786.29
1133350.1656,-4627.99,19192.13,8145.86,34618.29,30738.64,22823.38
1133350.1676,-4641.15,19215.82,8245.37,34628.2,30789.76,22856.62
1133350.1696,-4651.02,19223.98,8324.24,34634.07,30828.91,22882.37
1133350.1716,-4637.81,19192.79,8251.33,34616.81,30792.76,22853.28
1133350.1736,-4630.42,19156.36,8131.08,34598.45,30731.11,22804.64
1133350.1756,-4621.41,19124.18,8010.29,34579.95,30674.84,22762.83
1133350.1776,-4604.53,19104.67,7896.66,34572.89,30619.77,22733.55
1133350.1796,-4610.01,19148.88,7993.84,34599.93,30672.08,22772.93
1133350.1816,-4630.28,19177.34,8099.94,34609.75,30720.81,22806.03
1133350.1836,-4637.96,19202.47,8201.03,34618.95,30768.78,22842.03
1133350.1856,-4643.54,19230.03,8312.94,34635.83,30826.05,22884.18
1133350.1876,-4645.44,19209.67,8290.2,34620.62,30815.94,22868.68
1133350.1896,-4637.58,19166.23,8163.12,34594.35,30746.13,22813.7
1133350.1916,-4633.0,19136.38,8060.17,34580.33,30694.92,22775.94
1133350.1936,-4623.22,19100.38,7909.3,34563.31,30622.77,22732.36
1133350.1956,-4619.65,19139.82,7953.84,34593.25,30656.96,22766.02
1133350.1976,-4619.22,19185.93,8081.25,34619.67,30719.52,22815.28
1133350.1996,-4626.08,19205.62,8180.29,34626.96,30763.58,22841.46
1133350.2016,-4642.06,19220.31,8275.8,34628.82,30807.31,22864.2
1133350.2036,-4651.5,19214.92,8315.52,34619.19,30824.47,22867.59
1133350.2056,-4634.48,19177.96,8203.94,34604.65,30770.5,22826.87
1133350.2076,-4623.18,19155.12,8109.62,34601.12,30725.86,22797.68
1133350.2096,-4614.07,19119.93,7966.14,34582.91,30655.53,22754.72
1133350.2116,-4612.92,19122.89,7921.41,34586.53,30637.7,22751.48
1133350.2136,-4625.13,19161.66,8038.0,34606.6,30692.91,22787.38
1133350.2156,-4635.48,19188.93,8149.72,34617.38,30742.79,22821.38
1133350.2176,-4642.68,19206.76,8232.88,34623.91,30783.13,22852.81
1133350.2196,-4654.98,19222.21,8325.01,34629.4,30836.54,22884.23
1133350.2216,-4656.65,19173.77,8228.92,34598.93,30783.8,22838.02
1133350.2236,-4647.78,19141.49,8120.92,34584.19,30728.58,22796.68
1133350.2256,-4631.62,19115.02,8001.33,34574.56,30668.55,22757.25
1133350.2276,-4616.64,19101.29,7897.9,34568.55,30619.1,22730.54
1133350.2296,-4621.12,19145.4,7985.78,34594.78,30664.5,22764.64
1133350.2316,-4632.09,19185.69,8117.68,34615.85,30729.92,22813.75
1133350.2336,-4644.54,19199.9,8191.21,34618.76,30761.58,22836.31
1133350.2356,-4660.18,19226.89,8314.32,34634.74,30829.1,22881.18
1133350.2376,-4660.03,19197.99,8278.23,34616.57,30812.41,22862.34
1133350.2396,-4651.83,19158.99,8166.84,34595.92,30752.19,22815.42
1133350.2416,-4634.52,19133.71,8054.54,34584.34,30693.2,22769.88
1133350.2436,-4617.31,19108.97,7926.89,34573.8,30636.03,22735.12
1133350.2456,-4618.69,19128.99,7945.11,34587.44,30648.57,22751.76
1133350.2476,-4631.66,19173.34,8076.72,34611.32,30715.42,22798.02
1133350.2496,-4639.48,19200.28,8167.22,34622.15,30757.57,22827.44
1133350.2516,-4652.12,19229.08,8292.39,34638.98,30820.18,22869.4
1133350.2536,-4659.7,19215.68,8315.23,34624.29,30824.71,22865.82
1133350.2556,-4650.16,19177.34,8211.42,34607.8,30778.13,22829.15
1133350.2576,-4634.86,19146.44,8095.89,34596.35,30722.96,22785.57
1133350.2596,-4622.22,19119.31,7973.39,34583.14,30663.54,22744.37
1133350.2616,-4617.55,19116.55,7910.54,34583.05,30634.93,22733.26
1133350.2636,-4629.56,19161.85,8036.81,34607.27,30696.82,22781.9
1133350.2656,-4638.91,19182.02,8134.18,34615.33,30735.4,22810.32
1133350.2676,-4648.4,19208.48,8243.9,34628.92,30788.09,22849.37
1133350.2696,-4658.65,19221.83,8329.77,34635.26,30834.63,22876.79
1133350.2716,-4654.84,19189.5,8257.39,34616.76,30797.87,22849.47
1133350.2736,-4648.59,19150.12,8128.6,34594.83,30729.97,22799.07
1133350.2756,-4631.81,19128.9,8025.55,34582.19,30678.51,22760.54
1133350.2776,-4608.44,19116.17,7914.07,34584.19,30633.93,22737.41
1133350.2796,-4616.36,19156.41,8006.91,34611.18,30682.52,22776.8
1133350.2816,-4628.23,19189.31,8120.16,34628.06,30737.98,22813.66
1133350.2836,-4635.53,19216.73,8218.43,34642.46,30785.09,22849.99
1133350.2856,-4655.17,19231.94,8319.43,34647.61,30834.39,22882.61
1133350.2876,-4658.56,19208.0,8295.01,34630.11,30820.13,22868.92
1133350.2896,-4649.69,19166.61,8170.61,34608.7,30752.66,22818.62
1133350.2916,-4638.05,19148.35,8078.05,34606.27,30710.89,22787.96
1133350.2936,-4621.98,19118.03,7938.53,34591.73,30645.99,22752.24
1133350.2956,-4619.22,19141.63,7963.8,34604.03,30661.25,22768.74
1133350.2976,-4634.33,19175.63,8085.44,34619.14,30716.71,22801.97
1133350.2996,-4647.45,19197.13,8178.43,34623.96,30758.34,22830.68
1133350.3016,-4658.27,19220.78,8283.33,34637.17,30813.17,22870.11
1133350.3036,-4663.42,19218.26,8323.38,34634.5,30832.1,22878.27
1133350.3056,-4658.13,19175.05,8213.66,34610.32,30774.07,22831.16
1133350.3076,-4646.16,19149.64,8112.34,34597.54,30722.76,22788.91
1133350.3096,-4619.27,19128.71,7988.17,34594.35,30668.64,22756.77
1133350.3116,-4605.29,19138.34,7940.44,34605.84,30649.57,22757.2
1133350.3136,-4615.02,19184.54,8065.27,34628.59,30710.99,22801.83
1133350.3156,-4624.8,19214.35,8170.65,34641.65,30762.39,22835.64
1133350.3176,-4641.15,19228.51,8259.82,34645.28,30800.06,22857.91
1133350.3196,-4655.46,19239.0,8343.55,34648.33,30839.11,22879.7
1133350.3216,-4661.27,19195.13,8264.64,34619.91,30799.2,22839.45
1133350.3236,-4662.13,19148.16,8133.75,34591.11,30727.39,22783.47
1133350.3256,-4649.21,19117.55,8018.16,34574.61,30666.26,22743.51
1133350.3276,-4621.89,19110.16,7907.92,34577.42,30619.96,22723.73
1133350.3296,-4613.02,19169.62,8018.92,34618.76,30685.19,22777.75
1133350.3316,-4621.55,19212.44,8138.85,34642.7,30747.85,22823.62
1133350.3336,-4636.34,19230.61,8233.07,34647.14,30789.33,22853.19
1133350.3356,-4647.68,19246.72,8336.83,34654.86,30839.02,22888.85
1133350.3376,-4642.11,19228.56,8319.71,34645.61,30833.3,22878.79
1133350.3396,-4628.8,19192.03,8197.5,34624.87,30769.3,22830.68
1133350.3416,-4623.99,19163.42,8093.64,34610.9,30718.0,22792.72
1133350.3436,-4617.98,19123.03,7935.24,34587.15,30641.37,22746.23
1133350.3456,-4624.7,19142.44,7959.08,34597.73,30653.29,22764.16
1133350.3476,-4630.23,19182.64,8082.53,34620.29,30711.89,22803.98
1133350.3496,-4628.47,19215.73,8192.68,34636.6,30764.3,22840.17
1133350.3516,-4639.24,19238.86,8293.06,34644.42,30811.69,22870.64
1133350.3536,-4650.4,19236.47,8336.5,34639.41,30833.25,22881.27
1133350.3556,-4654.22,19186.59,8213.9,34609.27,30768.68,22831.16
1133350.3576,-4652.36,19150.02,8104.23,34584.14,30707.32,22783.23
1133350.3596,-4627.47,19121.22,7967.95,34572.65,30641.99,22742.18
1133350.3616,-4615.55,19127.9,7924.27,34584.0,30629.35,22745.8
1133350.3636,-4619.89,19176.1,8047.01,34616.76,30694.3,22795.87
1133350.3656,-4634.33,19202.57,8157.44,34625.34,30745.89,22829.06
1133350.3676,-4647.11,19216.73,8237.55,34632.16,30783.8,22855.09
1133350.3696,-4658.79,19232.8,8336.45,34639.55,30836.87,22888.85
1133350.3716,-4654.88,19193.46,8253.53,34615.19,30793.91,22854.09
1133350.3736,-4643.63,19166.23,8150.29,34603.12,30743.89,22814.32
1133350.3756,-4624.8,19142.49,8031.99,34594.68,30686.53,22774.56
1133350.3776,-4603.91,19127.8,7926.51,34592.49,30639.22,22751.72
1133350.3796,-4606.25,19166.0,8008.24,34615.09,30683.33,22786.1
1133350.3816,-4625.37,19195.75,8129.55,34624.49,30736.12,22822.76
1133350.3836,-4634.62,19212.87,8204.32,34626.87,30767.02,22843.55
1133350.3856,-4644.01,19247.25,8334.92,34647.14,30836.49,22891.24
1133350.3876,-4647.59,19220.93,8303.07,34626.87,30819.75,22872.5
1133350.3896,-4641.25,19182.64,8189.82,34603.03,30758.24,22827.06
1133350.3916,-4628.28,19157.56,8077.81,34591.35,30705.84,22789.77
1133350.3936,-4612.64,19128.28,7946.02,34579.57,30645.85,22755.82
1133350.3956,-4610.73,19146.11,7959.27,34597.07,30655.53,22771.46
1133350.3976,-4619.27,19192.65,8094.88,34620.77,30721.43,22818.33
1133350.3996,-4630.76,19211.68,8180.38,34625.34,30754.24,22845.08
1133350.4016,-4649.83,19237.71,8300.45,34634.74,30809.84,22880.13
1133350.4036,-4663.75,19230.42,8331.82,34625.87,30827.43,22882.75
1133350.4056,-4653.5,19185.26,8226.4,34604.12,30775.12,22839.5
1133350.4076,-4635.38,19154.22,8108.19,34593.82,30721.86,22795.63
1133350.4096,-4623.22,19123.65,7984.07,34583.14,30663.68,22759.3
1133350.4115,-4619.31,19117.55,7921.89,34584.48,30633.36,22745.95
1133350.4135,-4626.7,19165.52,8048.63,34611.75,30696.16,22793.72
1133350.4155,-4631.38,19190.93,8145.62,34617.62,30738.79,22823.86
1133350.4175,-4638.72,19222.64,8252.48,34631.88,30793.24,22863.82
1133350.4195,-4645.06,19237.81,8336.45,34635.6,30835.87,22888.62
1133350.4215,-4630.85,19208.34,8268.74,34616.81,30798.72,22860.43
1133350.4235,-4618.22,19173.1,8148.81,34599.45,30738.26,22811.51
1133350.4255,-4612.97,19146.87,8042.91,34589.25,30691.2,22779.42
1133350.4275,-4607.25,19118.6,7919.88,34581.28,30635.55,22751.19
1133350.4295,-4612.68,19160.8,8009.24,34606.99,30683.57,22789.67
1133350.4315,-4619.93,19194.99,8122.16,34620.96,30735.45,22822.43
1133350.4335,-4624.94,19220.83,8220.1,34630.54,30780.51,22855.33
1133350.4355,-4629.76,19250.97,8333.3,34647.52,30842.83,22899.2
1133350.4375,-4628.94,19228.56,8314.75,34629.11,30826.57,22882.89
1133350.4395,-4614.88,19186.12,8190.87,34603.31,30757.29,22830.54
1133350.4415,-4604.72,19167.19,8095.84,34598.64,30712.99,22797.49
1133350.4435,-4591.99,19134.67,7952.17,34583.05,30643.9,22752.19
1133350.4455,-4590.51,19155.89,7968.57,34600.5,30658.77,22769.26
1133350.4475,-4597.86,19200.95,8099.18,34624.91,30725.58,22816.33
1133350.4495,-4603.58,19226.55,8197.4,34637.93,30772.12,22849.75
1133350.4515,-4611.49,19247.11,8297.87,34645.75,30820.56,22884.42
1133350.4535,-4621.03,19240.1,8338.4,34639.17,30839.07,22891.86
1133350.4555,-4616.79,19200.04,8234.64,34617.24,30786.95,22847.94
1133350.4575,-4605.48,19173.72,8130.03,34607.13,30735.93,22806.03
1133350.4595,-4594.52,19139.58,7996.75,34591.15,30671.79,22762.68
1133350.4615,-4586.32,19137.91,7933.28,34593.2,30644.8,22752.29
1133350.4635,-4595.95,19184.5,8059.07,34621.53,30710.13,22797.11
1133350.4655,-4602.72,19215.97,8167.08,34635.26,30760.29,22833.06
1133350.4675,-4611.78,19237.28,8263.49,34645.66,30803.35,22862.96
1133350.4695,-4623.27,19247.2,8347.46,34649.52,30846.41,22888.28
1133350.4715,-4619.22,19212.3,8277.7,34628.82,30809.98,22859.67
1133350.4735,-4605.96,19178.01,8158.97,34611.37,30748.18,22810.99
1133350.4755,-4598.71,19149.35,8044.86,34593.44,30689.43,22767.98
1133350.4775,-4591.18,19125.61,7916.5,34581.38,30627.4,22732.4
1133350.4795,-4595.57,19166.14,8005.48,34605.84,30671.79,22767.36
1133350.4815,-4601.57,19197.61,8119.39,34620.24,30723.53,22805.84
1133350.4835,-4609.68,19222.31,8221.53,34629.02,30771.5,22839.74
1133350.4855,-4621.12,19243.53,8325.34,34638.41,30822.14,22877.65
1133350.4875,-4623.08,19221.45,8311.37,34625.96,30814.46,22868.83
1133350.4895,-4615.36,19181.78,8189.77,34604.27,30753.04,22821.67
1133350.4915,-4606.96,19156.84,8092.31,34596.83,30707.94,22787.86
1133350.4935,-4588.13,19125.42,7944.25,34580.95,30635.6,22746.14
1133350.4955,-4588.03,19148.73,7964.85,34598.69,30651.43,22765.83
1133350.4975,-4596.47,19186.31,8087.06,34620.19,30709.22,22805.84
1133350.4995,-4607.73,19212.39,8192.3,34633.45,30760.53,22840.98
1133350.5015,-4611.35,19242.05,8299.69,34654.76,30817.94,22883.8
1133350.5035,-4623.37,19242.58,8350.28,34653.33,30844.64,22894.91
1133350.5055,-4616.59,19201.76,8235.88,34629.02,30784.66,22845.99
1133350.5075,-4603.67,19178.3,8141.04,34619.72,30739.6,22814.47
1133350.5095,-4588.56,19139.24,7995.22,34598.78,30668.41,22767.5
1133350.5115,-4577.83,19138.15,7938.91,34604.22,30644.61,22765.31
1133350.5135,-4583.41,19181.87,8056.07,34629.54,30704.17,22813.51
1133350.5155,-4596.52,19210.48,8170.32,34638.12,30758.05,22846.8
1133350.5175,-4608.49,19227.46,8253.29,34646.94,30797.01,22873.83
1133350.5195,-4621.36,19246.29,8354.95,34654.53,30851.56,22908.64
1133350.5215,-4614.64,19208.29,8273.7,34631.78,30808.79,22871.45
1133350.5235,-4605.48,19176.77,8166.41,34615.19,30752.61,22824.39
1133350.5255,-4594.04,19148.88,8046.68,34603.98,30691.91,22780.75
1133350.5275,-4579.35,19129.8,7936.67,34598.07,30644.33,22756.87
1133350.5295,-4579.4,19167.71,8014.16,34619.72,30685.09,22789.48
1133350.5315,-4589.37,19208.2,8146.0,34640.13,30750.71,22837.31
1133350.5335,-4602.05,19222.07,8214.86,34641.75,30778.6,22858.53
1133350.5355,-4616.36,19251.54,8335.88,34656.05,30841.16,22898.87
1133350.5375,-4618.22,19227.75,8315.23,34641.46,30830.1,22882.04
1133350.5395,-4610.4,19191.08,8204.84,34622.86,30775.6,22841.65
1133350.5415,-4595.52,19164.33,8088.83,34609.51,30716.61,22800.5
1133350.5435,-4577.4,19133.86,7957.36,34597.45,30652.53,22762.16
1133350.5455,-4572.82,19150.55,7962.51,34609.94,30658.53,22771.5
1133350.5475,-4584.89,19194.99,8093.98,34635.26,30725.48,22819.95
1133350.5495,-4594.66,19213.25,8179.95,34642.99,30763.49,22846.7
1133350.5515,-4607.53,19241.86,8302.02,34658.25,30825.09,22888.66
1133350.5535,-4615.78,19240.38,8341.6,34653.81,30846.36,22895.86
1133350.5555,-4610.16,19202.62,8241.61,34631.4,30797.53,22856.19
1133350.5575,-4597.95,19169.95,8123.3,34613.8,30734.69,22805.41
1133350.5595,-4582.98,19138.29,8000.52,34596.59,30670.84,22762.83
1133350.5615,-4580.55,19129.85,7925.75,34593.16,30634.69,22747.42
1133350.5635,-4596.28,19177.63,8049.54,34622.05,30699.4,22791.72
1133350.5655,-4598.09,19205.43,8150.15,34632.07,30745.51,22821.62
1133350.5675,-4603.48,19225.98,8251.62,34644.89,30794.24,22856.91
1133350.5695,-4613.83,19240.38,8342.46,34653.19,30844.5,22888.95
1133350.5715,-4608.92,19210.96,8279.13,34635.31,30813.17,22861.05
1133350.5735,-4600.62,19173.15,8152.87,34616.57,30746.85,22816.04
1133350.5755,-4593.8,19150.93,8047.2,34604.27,30693.68,22776.51
1133350.5775,-4585.6,19124.37,7921.74,34592.44,30633.98,22743.04
1133350.5795,-4588.7,19163.71,8003.52,34620.24,30679.28,22782.28
1133350.5815,-4595.85,19192.65,8117.53,34632.88,30731.11,22818.71
1133350.5835,-4606.53,19212.34,8209.18,34640.98,30773.5,22850.66
1133350.5855,-4616.59,19236.57,8317.14,34648.57,30828.29,22888.23
1133350.5875,-4615.12,19219.83,8304.55,34639.98,30825.62,22880.46
1133350.5895,-4604.39,19179.2,8179.43,34620.58,30765.3,22832.11
1133350.5915,-4596.76,19155.08,8082.72,34610.9,30717.66,22795.25
1133350.5935,-4590.18,19114.45,7933.43,34585.62,30644.04,22747.71
1133350.5955,-4588.46,19134.14,7940.82,34599.12,30651.81,22764.3
1133350.5975,-4593.99,19179.25,8072.04,34620.91,30712.75,22808.03
1133350.5995,-4599.91,19205.29,8168.89,34631.21,30757.24,22839.02
1133350.6015,-4618.69,19225.36,8268.83,34639.31,30807.02,22875.17
1133350.6035,-4625.27,19223.84,8311.42,34635.21,30829.62,22887.04
1133350.6055,-4613.92,19182.35,8208.75,34611.47,30775.12,22846.22
1133350.6075,-4600.57,19155.93,8101.75,34600.26,30719.52,22807.17
1133350.6095,-4582.31,19129.66,7973.24,34588.29,30658.87,22766.64
1133350.6115,-4572.49,19125.8,7903.1,34588.53,30626.35,22753.77
1133350.6135,-4586.51,19169.14,8024.69,34613.28,30686.81,22797.44
1133350.6155,-4602.67,19197.51,8128.93,34627.73,30736.64,22831.01
1133350.6175,-4613.35,19219.07,8225.25,34634.74,30780.8,22860.34
1133350.6195,-4615.36,19236.52,8315.47,34644.56,30828.05,22889.33
1133350.6215,-4605.96,19209.29,8257.44,34629.73,30802.3,22865.58
1133350.6235,-4594.9,19175.1,8139.18,34615.28,30744.37,22821.14
1133350.6255,-4586.41,19144.78,8028.17,34600.64,30689.91,22782.61
1133350.6275,-4576.21,19116.59,7893.52,34584.67,30621.29,22745.37
1133350.6295,-4581.74,19159.37,7979.11,34611.61,30667.83,22781.18
1133350.6315,-4593.47,19193.17,8092.12,34629.25,30724.58,22822.19
1133350.6335,-4601.81,19217.06,8196.07,34641.84,30774.36,22858.43
1133350.6355,-4615.02,19238.81,8304.12,34651.38,30827.0,22893.29
1133350.6375,-4615.83,19221.69,8295.78,34635.45,30821.61,22882.75
1133350.6395,-4595.57,19179.73,8171.37,34613.8,30756.91,22830.35
1133350.6415,-4587.75,19154.03,8071.9,34601.12,30706.17,22791.39
1133350.6435,-4576.16,19119.93,7922.46,34583.53,30633.83,22748.14
1133350.6455,-4574.59,19139.53,7937.1,34597.21,30642.7,22765.11
1133350.6475,-4582.5,19178.2,8057.17,34618.19,30701.69,22808.32
1133350.6495,-4589.56,19206.14,8161.4,34631.35,30754.38,22845.22
1133350.6515,-4599.86,19227.36,8260.73,34643.94,30802.68,22879.41
1133350.6535,-4613.59,19227.75,8318.9,34640.94,30828.72,22891.95
1133350.6555,-4610.35,19183.21,8206.61,34613.14,30769.64,22843.32
1133350.6575,-4600.48,19158.7,8106.04,34603.17,30721.81,22803.98
1133350.6595,-4591.37,19128.52,7968.19,34588.72,30655.1,22760.01
1133350.6615,-4580.21,19127.99,7909.06,34592.3,30628.59,22754.39
1133350.6635,-4579.64,19168.19,8016.87,34613.42,30685.05,22798.49
1133350.6655,-4584.98,19199.28,8134.8,34628.92,30742.22,22837.59
1133350.6675,-4597.33,19216.11,8213.19,34633.45,30779.56,22858.24
1133350.6695,-4616.98,19231.51,8313.85,34639.79,30830.91,22886.95
1133350.6715,-4613.45,19195.56,8240.89,34617.09,30793.34,22853.76
1133350.6735,-4595.66,19169.38,8136.89,34605.51,30740.65,22814.04
1133350.6755,-4582.74,19139.82,8017.3,34591.97,30681.28,22769.84
1133350.6775,-4573.39,19117.21,7900.43,34582.05,30626.49,22740.41
1133350.6795,-4578.5,19152.83,7970.72,34604.98,30664.83,22775.51
1133350.6815,-4586.41,19191.12,8101.13,34623.58,30728.15,22820.95
1133350.6835,-4592.28,19204.09,8173.8,34627.58,30760.39,22846.08
1133350.6855,-4608.25,19231.13,8290.34,34640.13,30821.66,22887.76
1133350.6875,-4614.69,19207.19,8269.45,34621.53,30808.45,22870.16
1133350.6895,-4609.01,19166.33,8156.97,34602.31,30752.85,22824.29
1133350.6915,-4595.33,19142.01,8046.2,34592.68,30700.4,22785.24
1133350.6935,-4583.5,19107.58,7910.68,34574.47,30632.5,22742.66
1133350.6955,-4573.44,19124.84,7909.44,34587.2,30631.93,22752.53
1133350.6975,-4579.16,19176.1,8043.86,34612.23,30698.02,22801.31
1133350.6995,-4589.51,19197.66,8135.65,34621.62,30737.5,22826.96
1133350.7015,-4607.3,19225.89,8251.29,34640.46,30798.82,22872.12
1133350.7035,-4617.5,19220.78,8293.92,34635.26,30819.23,22881.03
1133350.7055,-4605.72,19180.35,8199.17,34612.42,30770.26,22842.79
1133350.7075,-4590.94,19150.21,8082.87,34591.87,30707.41,22792.06
1133350.7095,-4580.93,19120.46,7963.23,34575.8,30646.66,22749.19
1133350.7115,-4574.59,19116.69,7889.56,34578.28,30614.9,22735.12
1133350.7135,-4583.6,19164.95,8009.77,34605.55,30676.56,22779.04
1133350.7155,-4587.32,19190.93,8110.0,34616.28,30722.29,22808.89
1133350.7175,-4599.62,19212.39,8209.94,34625.96,30769.97,22841.12
1133350.7195,-4615.64,19224.84,8302.02,34629.25,30814.08,22870.54
1133350.7215,-4613.45,19190.79,8239.41,34607.94,30780.61,22841.12
1133350.7235,-4603.43,19151.12,8117.15,34586.86,30718.04,22790.39
1133350.7255,-4593.18,19127.04,8014.73,34580.71,30667.98,22756.05
1133350.7275,-4580.31,19101.48,7891.27,34572.41,30611.09,22726.16
1133350.7295,-4587.03,19139.96,7964.9,34593.3,30649.09,22759.82
1133350.7315,-4591.99,19176.49,8083.87,34605.41,30704.84,22798.02
1133350.7335,-4602.77,19200.99,8180.14,34615.23,30745.89,22828.58
1133350.7355,-4618.93,19220.07,8287.1,34625.44,30797.15,22864.63
1133350.7375,-4612.54,19208.0,8281.52,34616.28,30798.11,22856.43
1133350.7395,-4598.19,19165.8,8162.02,34589.29,30738.41,22805.46
1133350.7415,-4589.8,19139.86,8062.6,34580.0,30689.91,22769.36
1133350.7435,-4575.21,19109.68,7926.61,34568.65,30624.2,22730.93
1133350.7455,-4572.49,19129.37,7927.47,34586.58,30627.83,22742.7
1133350.7475,-4582.64,19174.15,8060.12,34611.23,30694.49,22787.34
1133350.7495,-4591.51,19199.56,8160.16,34620.24,30739.64,22812.27
1133350.7515,-4600.05,19225.6,8264.45,34631.07,30791.24,22848.32
1133350.7535,-4602.1,19229.8,8317.95,34632.88,30821.99,22866.73
1133350.7555,-4596.33,19190.22,8220.67,34612.56,30771.4,22825.15
1133350.7575,-4590.7,19160.94,8111.48,34596.35,30713.7,22779.99
1133350.7595,-4579.5,19127.42,7982.54,34578.66,30651.95,22737.98
1133350.7615,-4560.8,19122.08,7907.3,34579.9,30614.67,22725.39
1133350.7635,-4567.19,19169.52,8032.37,34608.42,30676.99,22776.32
1133350.7655,-4584.74,19189.41,8130.79,34615.09,30723.24,22806.07
1133350.7675,-4587.98,19214.63,8230.35,34630.02,30772.59,22837.93
1133350.7695,-4603.34,19228.08,8316.33,34632.31,30814.89,22865.2
1133350.7715,-4607.06,19194.37,8259.25,34610.94,30784.85,22837.59
1133350.7735,-4594.61,19159.8,8141.8,34597.11,30726.58,22795.87
1133350.7755,-4583.26,19135.0,8036.9,34586.86,30675.7,22758.92
1133350.7775,-4566.81,19110.92,7906.77,34575.42,30615.19,22722.06
1133350.7795,-4569.15,19152.12,7985.07,34601.88,30660.35,22759.25
1133350.7815,-4582.64,19188.88,8102.56,34621.77,30717.47,22799.02
1133350.7835,-4593.18,19214.11,8208.42,34633.12,30766.73,22832.59
1133350.7855,-4598.43,19236.52,8314.04,34642.32,30817.66,22868.49
1133350.7875,-4600.81,19218.59,8313.08,34629.25,30815.89,22864.49
1133350.7895,-4594.52,19175.34,8188.2,34603.5,30749.66,22811.7
1133350.7915,-4596.66,19147.16,8085.78,34588.39,30697.54,22771.74
1133350.7935,-4579.64,19113.16,7937.15,34570.46,30623.73,22730.07
1133350.7955,-4563.86,19134.95,7948.4,34586.34,30635.5,22744.71
1133350.7975,-4569.86,19176.91,8069.37,34609.18,30695.01,22782.04
1133350.7995,-4582.74,19202.33,8175.66,34619.96,30743.55,22811.94
1133350.8015,-4592.18,19222.55,8272.22,34630.73,30793.72,22843.65
1133350.8035,-4604.48,19225.08,8335.4,34629.06,30826.14,22861.15
1133350.8055,-4596.71,19184.16,8228.73,34603.31,30770.88,22817.33
1133350.8075,-4588.18,19159.08,8127.55,34594.35,30722.14,22779.47
1133350.8095,-4582.26,19120.74,7986.5,34575.04,30653.19,22731.26
1133350.8115,-4571.53,19117.31,7919.84,34580.43,30625.63,22722.91
1133350.8135,-4573.44,19163.52,8029.99,34604.65,30678.56,22764.35
1133350.8155,-4587.03,19193.37,8147.19,34617.09,30731.97,22802.07
1133350.8175,-4594.76,19212.87,8231.12,34625.68,30772.98,22831.59
1133350.8195,-4614.26,19228.13,8333.49,34633.74,30827.34,22869.83
1133350.8215,-4611.87,19192.27,8263.92,34608.51,30790.48,22838.55
1133350.8235,-4592.04,19165.28,8158.49,34593.16,30739.22,22799.3
1133350.8255,-4574.92,19137.15,8040.33,34583.24,30683.66,22759.49
1133350.8275,-4562.43,19114.54,7921.46,34572.61,30629.45,22730.93
1133350.8295,-4569.82,19147.11,7982.16,34587.34,30656.15,22755.2
1133350.8315,-4585.17,19184.73,8113.19,34603.98,30716.47,22795.2
1133350.8335,-4589.89,19200.8,8189.01,34608.85,30748.32,22818.52
1133350.8355,-4601.67,19230.51,8309.79,34623.53,30809.07,22863.34
1133350.8375,-4609.01,19207.62,8295.35,34604.6,30799.58,22848.99
1133350.8395,-4599.52,19169.86,8187.58,34586.86,30746.51,22808.17
1133350.8415,-4586.46,19142.44,8078.96,34578.33,30693.63,22769.88
1133350.8435,-4573.87,19113.11,7950.21,34564.17,30627.78,22727.44
1133350.8455,-4576.97,19126.51,7938.58,34569.7,30620.63,22728.78
1133350.8475,-4590.32,19173.2,8069.09,34597.07,30686.57,22773.22
1133350.8495,-4596.23,19198.99,8161.45,34607.08,30727.53,22799.88
1133350.8515,-4604.29,19221.4,8276.61,34619.62,30786.9,22838.5
1133350.8535,-4606.49,19220.4,8324.1,34617.95,30811.36,22848.32
1133350.8555,-4602.39,19186.93,8233.74,34599.59,30765.82,22817.66
1133350.8575,-4594.66,19154.12,8114.67,34583.24,30707.98,22775.32
1133350.8595,-4581.12,19126.7,7994.56,34569.65,30650.09,22739.7
1133350.8615,-4572.82,19116.88,7912.92,34566.79,30613.24,22724.11
1133350.8635,-4580.21,19162.61,8029.75,34595.92,30676.75,22769.12
1133350.8655,-4586.08,19191.27,8135.84,34607.84,30722.0,22799.64
1133350.8675,-4600.62,19213.3,8233.93,34614.85,30765.44,22828.92
1133350.8695,-4618.84,19222.98,8324.86,34616.14,30810.79,22857.33
1133350.8715,-4613.21,19191.55,8266.12,34599.83,30787.19,22840.79
1133350.8735,-4597.04,19155.41,8143.62,34586.62,30732.25,22800.35
1133350.8755,-4593.56,19131.66,8038.24,34577.85,30685.67,22767.4
1133350.8775,-4580.98,19105.39,7911.11,34562.4,30620.82,22731.16
1133350.8795,-4578.83,19143.15,7979.82,34587.1,30659.77,22765.54
1133350.8815,-4587.46,19176.91,8098.22,34604.36,30712.99,22802.31
1133350.8835,-4590.85,19201.23,8194.4,34614.52,30756.81,22833.49
1133350.8855,-4596.38,19225.46,8305.65,34625.73,30813.84,22868.54
1133350.8875,-4599.29,19212.25,8306.22,34618.24,30816.94,22867.11
1133350.8895,-4594.42,19170.14,8189.01,34599.02,30756.86,22823.53
1133350.8915,-4583.07,19147.45,8089.69,34589.34,30705.46,22782.9
1133350.8935,-4568.29,19115.88,7954.88,34570.79,30637.22,22738.75
1133350.8955,-4565.33,19132.19,7950.02,34583.67,30635.65,22745.47
1133350.8975,-4576.49,19176.25,8080.15,34607.65,30699.78,22786.19
1133350.8995,-4583.45,19202.52,8178.9,34618.0,30745.32,22815.04
1133350.9015,-4602.05,19221.26,8277.46,34624.63,30793.34,22849.71
1133350.9035,-4611.16,19216.92,8326.15,34615.81,30813.22,22860.43
1133350.9055,-4605.1,19179.25,8232.21,34594.68,30764.3,22821.57
1133350.9075,-4591.89,19152.45,8125.74,34584.43,30712.51,22782.76
1133350.9095,-4582.12,19122.89,8003.14,34573.27,30657.3,22746.95
1133350.9115,-4576.73,19119.41,7923.32,34574.61,30623.34,22732.59
1133350.9135,-4583.65,19167.9,8044.91,34603.17,30683.04,22780.47
1133350.9155,-4586.41,19195.89,8151.68,34615.19,30729.54,22812.61
1133350.9175,-4597.47,19218.11,8248.47,34625.01,30776.22,22843.65
1133350.9195,-4623.08,19227.17,8337.21,34630.06,30820.8,22872.59
1133350.9215,-4622.03,19199.99,8288.24,34614.81,30797.91,22852.14
1133350.9235,-4603.2,19173.58,8171.89,34602.65,30741.65,22810.75
1133350.9255,-4579.4,19150.35,8066.13,34592.68,30694.68,22775.61
1133350.9275,-4555.27,19124.41,7931.04,34581.81,30631.55,22741.61
1133350.9295,-4563.38,19157.08,7998.04,34598.74,30665.16,22767.74
1133350.9315,-4576.35,19186.98,8108.81,34610.47,30712.18,22798.45
1133350.9335,-4587.75,19209.91,8212.76,34618.86,30756.76,22829.49
1133350.9355,-4601.96,19233.09,8317.66,34633.83,30814.37,22869.78
1133350.9375,-4611.92,19219.31,8320.33,34621.34,30818.37,22866.54
1133350.9395,-4604.29,19181.06,8202.65,34603.74,30759.91,22824.81
1133350.9415,-4597.14,19157.08,8106.38,34595.59,30713.94,22788.91
1133350.9435,-4578.45,19125.85,7962.37,34582.33,30644.85,22745.28
1133350.9455,-4575.4,19144.35,7963.56,34596.73,30650.71,22760.11
1133350.9475,-4582.98,19188.74,8086.49,34621.62,30712.94,22801.74
1133350.9495,-4592.56,19215.73,8194.35,34634.45,30761.53,22831.25
1133350.9515,-4605.39,19236.09,8289.05,34644.04,30808.74,22865.58
1133350.9535,-4610.11,19244.63,8357.24,34647.56,30847.36,22891.24
1133350.9555,-4600.1,19202.09,8251.48,34620.72,30788.85,22849.23
1133350.9575,-4592.09,19174.34,8145.91,34604.89,30736.02,22808.51
1133350.9595,-4582.36,19148.64,8014.87,34594.16,30678.56,22767.17
1133350.9615,-4569.34,19145.16,7943.11,34596.97,30648.28,22759.15
1133350.9635,-4568.39,19188.69,8053.45,34628.2,30703.83,22802.26
1133350.9655,-4579.12,19220.31,8173.51,34640.98,30756.62,22834.35
1133350.9675,-4591.56,19240.76,8254.96,34648.85,30794.1,22856.52
1133350.9695,-4599.86,19263.65,8364.34,34661.54,30851.99,22894.19
1133350.9715,-4587.36,19230.18,8300.45,34640.6,30819.85,22868.59
1133350.9735,-4574.63,19199.99,8192.11,34625.63,30765.92,22827.68
1133350.9755,-4565.19,19170.62,8072.76,34610.56,30705.12,22783.76
1133350.9775,-4546.98,19148.78,7952.98,34601.41,30649.24,22755.67
1133350.9795,-4551.13,19180.73,8008.39,34619.38,30677.75,22781.37
1133350.9815,-4563.9,19223.36,8141.04,34636.93,30739.12,22821.52
1133350.9835,-4577.97,19238.95,8217.0,34640.7,30770.11,22840.88
1133350.9855,-4597.04,19263.65,8336.88,34655.0,30831.05,22887.47
1133350.9875,-4599.91,19244.1,8332.16,34644.04,30828.67,22880.13
1133350.9895,-4592.8,19205.76,8220.63,34620.72,30769.45,22835.31
1133350.9915,-4584.12,19174.72,8104.13,34602.88,30707.36,22789.15
1133350.9935,-4575.78,19142.77,7976.15,34586.77,30644.09,22752.34
1133350.9955,-4567.24,19154.36,7961.85,34598.83,30639.94,22758.68
1133350.9975,-4572.49,19199.42,8091.93,34621.43,30703.5,22799.69
1133350.9995,-4576.45,19220.5,8185.34,34627.25,30740.93,22825.29
1133351.0015,-4593.71,19247.44,8301.88,34644.85,30800.63,22866.3
1133351.0035,-4604.39,19251.4,8354.62,34646.56,30833.39,22885.04
1133351.0055,-4595.9,19215.25,8262.35,34627.16,30791.0,22850.09
1133351.0075,-4580.59,19180.54,8138.71,34606.75,30727.34,22799.3
1133351.0095,-4565.91,19154.65,8022.12,34598.88,30674.75,22763.3
1133351.0115,-4559.71,19145.68,7937.38,34597.54,30637.17,22747.57
1133351.0135,-4568.29,19192.08,8054.54,34627.44,30697.78,22793.3
1133351.0155,-4577.92,19223.26,8164.07,34640.32,30747.46,22826.96
1133351.0175,-4587.6,19248.54,8264.83,34652.76,30797.39,22860.58
1133351.0195,-4591.42,19268.71,8366.06,34663.63,30852.56,22898.53
1133351.0215,-4588.46,19235.76,8307.93,34644.04,30823.85,22875.12
1133351.0235,-4578.88,19197.32,8181.81,34623.91,30759.29,22826.2
1133351.0255,-4566.0,19175.58,8078.91,34615.85,30709.79,22793.15
1133351.0275,-4555.23,19144.78,7945.01,34596.73,30642.51,22753.77
1133351.0295,-4557.51,19179.49,8008.05,34618.33,30673.79,22780.37
1133351.0315,-4576.25,19216.35,8131.46,34634.74,30731.73,22819.66
1133351.0335,-4594.14,19238.38,8228.06,34642.61,30774.64,22848.04
1133351.0355,-4601.38,19262.6,8340.07,34659.44,30833.72,22886.95
1133351.0375,-4595.28,19247.82,8341.69,34652.09,30837.25,22884.51
1133351.0395,-4581.55,19205.81,8224.2,34630.35,30778.13,22839.5
1133351.0415,-4578.07,19180.35,8119.39,34617.14,30725.44,22799.26
1133351.0435,-4573.2,19142.96,7978.01,34599.79,30656.87,22756.05
1133351.0455,-4570.68,19160.37,7968.0,34613.33,30657.49,22765.21
1133351.0475,-4577.83,19206.91,8099.75,34638.98,30723.72,22810.22
1133351.0495,-4582.79,19231.66,8197.69,34646.8,30765.97,22839.12
1133351.0515,-4594.66,19249.35,8298.4,34655.38,30815.32,22872.64
1133351.0535,-4605.2,19250.92,8352.09,34654.29,30840.78,22888.28
1133351.0555,-4600.0,19212.01,8259.58,34634.07,30796.1,22854.38
1133351.0575,-4592.13,19176.1,8144.28,34617.38,30738.79,22809.7
1133351.0595,-4579.83,19140.53,8016.68,34594.68,30673.79,22767.59
1133351.0615,-4566.48,19129.47,7925.08,34589.25,30632.59,22748.09
1133351.0635,-4573.2,19176.29,8042.53,34619.29,30689.77,22793.44
1133351.0655,-4579.93,19206.24,8153.96,34635.6,30741.22,22826.58
1133351.0675,-4590.13,19228.6,8253.05,34645.51,30788.28,22860.96
1133351.0695,-4602.39,19246.72,8346.13,34655.38,30837.35,22893.19
1133351.0715,-4606.2,19213.01,8295.82,34632.02,30811.31,22867.59
1133351.0735,-4599.14,19174.53,8171.99,34608.56,30745.51,22817.57
1133351.0755,-4590.32,19150.69,8068.37,34597.59,30696.68,22784.05
1133351.0775,-4573.63,19117.69,7926.89,34582.05,30627.11,22742.89
1133351.0795,-4572.15,19155.7,7996.27,34609.85,30668.79,22778.18
1133351.0815,-4580.83,19194.08,8114.24,34630.73,30724.48,22817.33
1133351.0835,-4589.75,19224.5,8223.34,34646.56,30774.41,22854.81
1133351.0855,-4599.62,19247.39,8329.15,34658.44,30830.53,22889.43
1133351.0875,-4604.34,19236.28,8340.31,34650.71,30836.68,22887.42
1133351.0895,-4596.14,19196.08,8219.05,34627.54,30774.55,22840.17
1133351.0915,-4590.23,19170.19,8123.64,34615.19,30727.1,22803.83
1133351.0935,-4585.79,19131.57,7972.34,34595.68,30652.43,22754.1
1133351.0955,-4577.73,19148.5,7965.52,34606.65,30653.67,22766.88
1133351.0975,-4571.96,19190.7,8085.97,34631.69,30714.42,22809.46
1133351.0995,-4575.59,19220.26,8197.74,34650.81,30771.78,22846.89
1133351.1015,-4583.12,19241.48,8293.44,34663.59,30820.56,22877.36
1133351.1035,-4591.85,19250.63,8365.11,34664.35,30861.43,22901.2
1133351.1055,-4587.98,19208.48,8261.16,34638.27,30805.4,22859.48
1133351.1075,-4584.22,19178.82,8154.06,34623.34,30752.71,22819.28
1133351.1095,-4575.25,19145.87,8019.4,34607.94,30686.91,22776.32
1133351.1115,-4565.0,19137.34,7941.29,34606.37,30648.43,22762.02
1133351.1135,-4567.81,19180.73,8044.91,34628.63,30699.88,22799.78
1133351.1155,-4575.06,19215.87,8169.22,34643.42,30757.81,22838.5
1133351.1175,-4581.26,19228.79,8248.57,34648.14,30791.57,22861.63
1133351.1195,-4595.52,19250.92,8358.77,34657.96,30850.65,22899.77
1133351.1215,-4592.42,19218.64,8299.49,34636.55,30818.42,22872.12
1133351.1235,-4585.12,19181.54,8185.67,34615.66,30759.2,22827.44
1133351.1255,-4577.02,19153.79,8068.51,34598.59,30700.69,22783.0
1133351.1275,-4567.91,19127.9,7943.11,34585.72,30640.32,22749.52
1133351.1295,-4566.15,19158.99,7994.7,34605.7,30667.69,22775.56
1133351.1315,-4571.53,19203.47,8133.56,34630.3,30735.4,22824.48
1133351.1335,-4575.87,19221.45,8214.67,34638.22,30770.21,22847.66
1133351.1355,-4591.18,19248.39,8334.78,34652.28,30829.72,22884.9
1133351.1375,-4596.85,19231.75,8335.45,34639.98,30829.43,22879.32
1133351.1395,-4587.32,19193.46,8225.87,34619.0,30775.26,22837.45
1133351.1415,-4574.97,19164.95,8111.95,34606.32,30718.71,22791.29
1133351.1435,-4560.66,19136.1,7983.16,34593.16,30656.44,22755.2
1133351.1455,-4557.42,19147.78,7962.47,34601.36,30645.9,22760.73
1133351.1475,-4572.68,19195.7,8094.22,34627.35,30713.18,22808.22
1133351.1495,-4588.8,19219.45,8189.01,34635.83,30755.14,22834.78
1133351.1515,-4591.61,19247.92,8306.31,34652.43,30814.99,22876.89
1133351.1535,-4594.71,19246.68,8362.34,34650.95,30849.17,22897.2
1133351.1555,-4592.32,19202.85,8269.36,34624.96,30800.78,22862.72
1133351.1575,-4584.84,19166.66,8150.24,34610.8,30739.12,22817.95
1133351.1595,-4576.4,19141.63,8033.28,34601.07,30688.34,22781.57
1133351.1615,-4569.24,19133.0,7943.01,34603.22,30650.57,22763.64
1133351.1635,-4575.78,19178.82,8054.83,34632.4,30708.08,22806.84
1133351.1655,-4582.83,19203.67,8163.26,34644.75,30758.19,22839.12
1133351.1675,-4592.85,19221.36,8261.25,34652.81,30802.21,22866.2
1133351.1695,-4613.11,19239.67,8359.48,34662.11,30854.18,22902.92
1133351.1715,-4610.01,19215.44,8311.8,34647.09,30832.72,22889.14
1133351.1735,-4592.32,19178.77,8187.25,34626.82,30772.55,22842.22
1133351.1755,-4580.4,19152.45,8080.72,34614.61,30718.47,22808.27
1133351.1775,-4564.1,19125.61,7948.78,34602.55,30657.53,22774.84
1133351.1795,-4563.09,19157.56,8004.57,34624.77,30685.95,22797.68
1133351.1815,-4574.44,19193.84,8126.36,34639.31,30740.69,22830.78
1133351.1835,-4582.69,19217.92,8225.39,34649.57,30785.18,22863.58
1133351.1855,-4593.99,19240.62,8335.69,34662.3,30843.21,22904.3
1133351.1875,-4599.43,19227.08,8341.55,34653.0,30847.84,22904.64
1133351.1895,-4593.09,19185.35,8223.34,34628.11,30786.33,22858.91
1133351.1915,-4582.26,19161.08,8117.87,34618.95,30733.73,22815.99
1133351.1935,-4570.77,19130.85,7984.26,34601.12,30669.84,22772.46
1133351.1955,-4570.48,19140.39,7960.08,34608.65,30660.73,22775.46
1133351.1975,-4586.41,19182.83,8088.78,34630.92,30720.33,22819.33
1133351.1995,-4590.8,19210.87,8195.59,34642.51,30767.25,22853.9
1133351.2015,-4600.38,19230.8,8297.02,34651.0,30815.8,22888.14
1133351.2035,-4609.25,19230.56,8354.0,34649.33,30845.12,22904.49
1133351.2055,-4603.48,19191.98,8264.83,34625.01,30796.39,22865.58
1133351.2075,-4596.04,19155.46,8146.72,34607.27,30733.54,22813.66
1133351.2095,-4588.03,19121.36,8022.45,34586.29,30670.12,22766.83
1133351.2115,-4574.01,19113.78,7932.47,34584.72,30630.74,22745.52
1133351.2135,-4580.69,19163.04,8046.82,34617.09,30693.2,22794.54
1133351.2155,-4591.37,19194.89,8156.68,34635.21,30744.37,22829.39
1133351.2175,-4592.99,19217.49,8260.25,34646.61,30790.86,22859.24
1133351.2195,-4601.1,19227.75,8349.13,34648.76,30836.3,22888.28
1133351.2215,-4604.77,19200.09,8305.22,34632.11,30817.08,22871.59
1133351.2235,-4597.95,19164.52,8185.82,34615.23,30756.43,22826.15
1133351.2255,-4588.08,19143.73,8082.87,34606.6,30710.22,22794.96
1133351.2275,-4569.05,19112.21,7940.1,34591.01,30643.75,22754.29
1133351.2295,-4570.77,19145.59,7999.09,34615.52,30679.18,22784.52
1133351.2315,-4585.55,19182.49,8115.72,34632.54,30734.97,22823.0
1133351.2335,-4601.86,19208.34,8221.72,34641.17,30780.27,22853.85
1133351.2355,-4610.21,19232.56,8326.29,34652.81,30830.58,22887.52
1133351.2375,-4606.53,19224.07,8342.65,34647.37,30840.83,22890.0
1133351.2395,-4595.28,19181.02,8221.01,34623.96,30781.27,22847.8
1133351.2415,-4585.55,19153.5,8121.92,34613.04,30734.26,22814.18
1133351.2435,-4569.39,19116.36,7972.77,34591.44,30660.68,22768.07
1133351.2455,-4564.71,19131.19,7958.32,34602.69,30656.2,22774.65
1133351.2475,-4572.68,19177.15,8079.96,34625.44,30711.89,22810.46
1133351.2495,-4583.79,19203.38,8191.16,34637.5,30762.77,22843.13
1133351.2515,-4592.75,19223.26,8284.81,34644.85,30806.83,22871.69
1133351.2535,-4602.05,19230.22,8360.34,34645.23,30845.12,22896.2
1133351.2555,-4599.91,19185.26,8258.44,34619.0,30788.95,22852.14
1133351.2575,-4593.18,19156.84,8154.15,34609.18,30740.12,22814.09
1133351.2595,-4584.03,19125.65,8023.64,34592.92,30675.7,22771.69
1133351.2615,-4577.35,19113.83,7935.48,34587.2,30631.02,22750.81
1133351.2635,-4584.12,19156.46,8034.8,34615.19,30683.24,22792.77
1133351.2655,-4590.32,19191.08,8158.4,34628.73,30740.31,22830.87
1133351.2675,-4596.28,19205.05,8236.84,34630.49,30774.55,22852.85
1133351.2695,-4608.63,19228.08,8351.28,34643.08,30833.63,22892.53
1133351.2715,-4607.25,19199.52,8299.73,34627.25,30809.22,22868.21
1133351.2735,-4606.3,19162.13,8187.29,34610.94,30755.48,22824.72
1133351.2755,-4588.7,19137.81,8071.33,34597.45,30701.45,22782.28
1133351.2775,-4565.67,19112.64,7945.11,34587.34,30645.42,22749.33
1133351.2795,-4560.57,19142.68,7988.64,34606.6,30669.88,22773.03
1133351.2815,-4580.36,19183.35,8124.97,34628.3,30733.73,22818.95
1133351.2835,-4589.99,19201.42,8206.46,34633.35,30767.59,22839.45
1133351.2855,-4600.62,19227.41,8326.34,34645.75,30826.62,22881.27
1133351.2875,-4601.81,19215.97,8332.06,34636.31,30830.2,22878.6
1133351.2895,-4593.9,19175.39,8221.91,34610.9,30772.59,22837.21
1133351.2915,-4587.46,19145.2,8109.38,34598.4,30718.76,22797.78
1133351.2935,-4572.01,19115.83,7978.39,34585.96,30655.29,22759.96
1133351.2955,-4560.8,19125.46,7950.5,34599.12,30647.62,22762.44
1133351.2975,-4576.02,19172.05,8079.01,34623.01,30711.23,22805.07
1133351.2995,-4592.04,19195.75,8176.52,34631.49,30751.33,22830.2
1133351.3015,-4601.81,19218.11,8288.81,34642.32,30804.3,22862.63
1133351.3035,-4607.63,19221.02,8350.9,34642.84,30840.21,22884.99
1133351.3055,-4599.05,19185.16,8264.16,34622.96,30795.77,22853.33
1133351.3075,-4588.7,19152.6,8146.43,34607.61,30739.26,22808.79
1133351.3095,-4576.35,19127.47,8030.7,34597.5,30686.33,22772.17
1133351.3115,-4569.96,19108.01,7930.33,34587.82,30636.36,22742.56
1133351.3135,-4582.07,19147.78,8032.13,34611.75,30686.1,22781.18
1133351.3155,-4593.9,19177.49,8142.71,34622.24,30734.3,22814.04
1133351.3175,-4606.96,19196.56,8242.42,34627.06,30775.17,22842.08
1133351.3195,-4625.32,19215.16,8344.46,34639.55,30830.72,22876.69
1133351.3215,-4622.79,19186.64,8295.97,34622.63,30807.4,22858.38
1133351.3235,-4600.19,19149.45,8171.27,34603.17,30746.89,22811.65
1133351.3255,-4587.22,19130.14,8067.89,34593.73,30698.83,22774.56
1133351.3275,-4571.1,19106.2,7938.1,34580.33,30636.27,22738.27
1133351.3295,-4574.01,19138.15,7987.79,34602.07,30664.78,22768.31
1133351.3315,-4587.89,19173.39,8114.43,34619.0,30722.72,22808.75
1133351.3335,-4600.53,19195.46,8211.33,34628.06,30765.87,22839.93
1133351.3355,-4606.77,19217.26,8317.04,34637.26,30821.95,22876.27
1133351.3375,-4606.63,19205.52,8329.11,34626.25,30825.76,22873.36
1133351.3395,-4596.81,19167.09,8218.15,34604.22,30767.92,22828.53
1133351.3415,-4590.7,19142.06,8112.57,34593.01,30717.14,22789.91
1133351.3435,-4576.59,19107.68,7977.58,34576.71,30649.24,22750.33
1133351.3455,-4570.58,19119.46,7947.97,34588.39,30640.89,22750.05
1133351.3475,-4580.88,19161.23,8077.53,34612.8,30704.26,22793.44
1133351.3495,-4592.32,19186.64,8181.19,34623.15,30749.32,22820.9
1133351.3515,-4602.43,19207.05,8281.66,34632.5,30798.2,22855.19
1133351.3535,-4606.2,19215.92,8345.75,34636.79,30834.82,22877.08
1133351.3555,-4596.04,19184.88,8268.21,34619.72,30796.01,22845.99
1133351.3575,-4586.41,19154.41,8155.63,34604.51,30738.79,22804.88
1133351.3595,-4584.27,19123.46,8031.42,34591.58,30681.28,22765.69
1133351.3615,-4574.11,19105.91,7928.66,34585.67,30633.17,22739.27
1133351.3635,-4575.54,19147.3,8035.47,34608.42,30687.38,22778.66
1133351.3655,-4582.69,19174.91,8144.81,34619.0,30732.4,22809.41
1133351.3675,-4595.71,19199.18,8246.95,34623.96,30777.12,22841.31
1133351.3695,-4607.53,19215.35,8340.98,34628.92,30826.14,22874.17
1133351.3715,-4606.68,19191.74,8304.17,34615.47,30812.22,22857.38
1133351.3735,-4599.43,19154.22,8179.43,34598.93,30749.75,22809.32
1133351.3755,-4589.27,19131.23,8076.62,34591.01,30702.12,22776.84
1133351.3775,-4570.82,19099.19,7930.23,34574.08,30631.21,22734.5
1133351.3795,-4570.68,19125.51,7981.21,34588.25,30654.05,22754.81
1133351.3815,-4577.92,19163.47,8101.51,34606.41,30708.84,22792.2
1133351.3835,-4592.04,19187.55,8211.33,34617.0,30759.86,22823.34
1133351.3855,-4611.97,19209.63,8315.56,34628.44,30814.37,22854.43
1133351.3875,-4620.5,19201.95,8336.97,34624.49,30830.63,22863.01
1133351.3895,-4607.25,19160.03,8216.05,34600.88,30767.97,22817.66
1133351.3915,-4597.95,19137.19,8116.68,34590.44,30719.19,22784.05
1133351.3935,-4577.21,19101.19,7969.52,34573.61,30645.37,22737.32
1133351.3955,-4566.29,19112.16,7949.54,34583.43,30638.46,22738.51
1133351.3975,-4574.82,19154.17,8067.61,34605.79,30695.49,22779.32
1133351.3995,-4587.94,19181.87,8181.67,34621.15,30750.18,22815.52
1133351.4015,-4609.59,19197.75,8272.7,34627.82,30791.91,22841.89
1133351.4035,-4625.56,19208.24,8349.23,34631.07,30833.77,22866.78
1133351.4055,-4613.26,19172.34,8254.82,34608.75,30786.18,22832.21
1133351.4075,-4594.52,19147.54,8153.63,34598.55,30737.07,22796.92
1133351.4095,-4575.11,19117.26,8021.78,34583.05,30673.27,22753.62
1133351.4115,-4564.81,19103.53,7929.28,34575.47,30625.39,22732.79
1133351.4135,-4578.21,19141.39,8023.55,34595.78,30669.65,22767.4
1133351.4155,-4593.13,19172.58,8148.67,34612.09,30731.25,22807.79
1133351.4175,-4601.29,19189.17,8230.97,34620.53,30771.74,22835.11
1133351.4195,-4616.74,19214.54,8344.37,34636.41,30837.21,22879.98
1133351.4215,-4615.97,19185.5,8295.11,34618.33,30815.18,22858.15
1133351.4235,-4609.11,19148.16,8183.81,34600.17,30757.14,22813.47
1133351.4255,-4599.95,19118.36,8071.09,34588.53,30698.4,22771.74
1133351.4275,-4582.26,19091.51,7940.39,34577.76,30637.94,22736.03
1133351.4295,-4570.96,19122.17,7981.68,34593.35,30658.44,22757.44
1133351.4315,-4574.35,19170.95,8124.26,34617.86,30723.96,22805.93
1133351.4335,-4588.41,19189.36,8206.89,34623.29,30757.0,22829.68
1133351.4354,-4599.62,19216.4,8325.24,34636.31,30820.56,22872.55
1133351.4374,-4603.34,19203.14,8336.35,34627.35,30827.81,22874.26
1133351.4394,-4602.77,19159.94,8225.49,34603.46,30770.16,22830.25
1133351.4414,-4594.85,19130.66,8109.48,34587.82,30710.13,22785.0
1133351.4434,-4581.26,19101.67,7978.96,34573.94,30646.61,22744.56
1133351.4454,-4572.49,19105.44,7941.01,34577.09,30625.97,22737.22
1133351.4474,-4582.83,19152.5,8071.57,34605.17,30690.24,22786.05
1133351.4494,-4591.85,19177.77,8172.7,34615.04,30736.74,22817.52
1133351.4514,-4606.72,19203.09,8284.52,34627.82,30793.19,22854.24
1133351.4534,-4620.7,19208.58,8351.8,34628.73,30825.43,22873.83
1133351.4554,-4618.26,19169.24,8261.3,34606.6,30780.56,22837.59
1133351.4574,-4598.95,19134.14,8138.47,34586.96,30720.19,22789.72
1133351.4594,-4578.26,19108.73,8025.07,34577.14,30666.88,22753.19
1133351.4614,-4566.72,19093.28,7922.32,34573.61,30620.34,22731.45
1133351.4634,-4582.26,19137.53,8025.55,34597.83,30676.13,22775.08
1133351.4654,-4599.38,19170.62,8141.38,34612.8,30731.97,22810.41
1133351.4674,-4603.15,19193.79,8240.8,34624.68,30777.7,22840.93
1133351.4694,-4614.16,19211.68,8345.18,34634.17,30828.81,22876.79
1133351.4714,-4612.54,19187.74,8305.74,34619.91,30808.64,22857.43
1133351.4734,-4599.81,19150.12,8181.81,34597.93,30747.23,22810.18
1133351.4754,-4589.61,19120.36,8074.43,34584.86,30695.35,22774.13
1133351.4774,-4572.68,19085.5,7939.2,34567.03,30625.78,22732.79
1133351.4794,-4566.67,19115.74,7981.64,34585.15,30647.52,22756.01
1133351.4814,-4578.92,19157.7,8111.57,34606.17,30709.7,22799.16
1133351.4834,-4590.23,19182.4,8209.94,34614.95,30753.43,22826.63
1133351.4854,-4605.63,19206.34,8318.85,34628.73,30811.79,22864.96
1133351.4874,-4614.97,19196.8,8336.45,34625.68,30822.38,22868.3
1133351.4894,-4604.39,19158.17,8225.59,34603.17,30766.73,22827.68
1133351.4914,-4590.65,19133.0,8117.58,34590.92,30715.71,22788.0
1133351.4934,-4574.63,19100.57,7985.4,34577.52,30652.62,22748.0
1133351.4954,-4567.53,19105.44,7946.44,34586.05,30638.27,22745.47
1133351.4974,-4578.45,19151.59,8077.43,34611.85,30705.07,22790.86
1133351.4994,-4589.27,19180.4,8183.62,34623.82,30751.04,22821.91
1133351.5014,-4609.68,19205.14,8284.38,34630.78,30795.01,22850.18
1133351.5034,-4619.31,19211.82,8350.33,34630.73,30827.24,22868.92
1133351.5054,-4605.2,19174.86,8268.17,34610.42,30787.95,22839.84
1133351.5074,-4590.94,19137.53,8148.96,34590.39,30727.53,22790.53
1133351.5094,-4578.16,19106.77,8027.27,34572.51,30667.59,22751.62
1133351.5114,-4567.72,19089.13,7916.98,34564.45,30616.19,22729.78
1133351.5134,-4579.97,19133.09,8019.97,34590.68,30672.55,22770.07
1133351.5154,-4591.89,19167.57,8135.84,34609.13,30725.44,22802.26
1133351.5174,-4607.06,19191.32,8239.37,34618.52,30769.54,22833.06
1133351.5194,-4623.08,19208.67,8334.97,34625.34,30821.57,22864.06
1133351.5214,-4619.69,19186.17,8303.5,34611.37,30809.02,22850.61
1133351.5234,-4598.95,19146.25,8181.76,34591.25,30745.56,22803.69
1133351.5254,-4582.55,19119.12,8077.48,34579.61,30696.2,22770.22
1133351.5274,-4565.29,19084.36,7929.42,34562.31,30624.63,22727.59
1133351.5294,-4565.57,19118.65,7978.58,34583.24,30654.34,22755.77
1133351.5314,-4576.78,19157.79,8097.46,34600.74,30709.41,22792.49
1133351.5334,-4591.8,19180.87,8207.42,34612.33,30760.67,22825.91
1133351.5354,-4608.92,19201.95,8309.6,34623.91,30813.36,22862.63
1133351.5374,-4618.98,19195.65,8334.35,34617.86,30827.1,22870.5
1133351.5394,-4606.53,19153.41,8212.9,34587.91,30761.44,22823.34
1133351.5414,-4596.28,19128.04,8111.19,34577.52,30714.28,22788.15
1133351.5434,-4579.74,19092.37,7965.04,34562.26,30643.66,22741.51
1133351.5454,-4576.21,19102.43,7937.19,34575.75,30635.6,22741.51
1133351.5474,-4586.79,19144.2,8058.98,34598.02,30694.01,22780.47
1133351.5494,-4602.15,19171.62,8173.99,34609.85,30743.89,22815.28
1133351.5514,-4613.35,19193.08,8267.12,34617.95,30785.95,22843.32
1133351.5534,-4625.13,19205.95,8351.76,34623.34,30830.34,22871.12
1133351.5554,-4615.16,19167.09,8261.49,34602.22,30784.09,22834.83
1133351.5574,-4602.53,19135.86,8151.34,34586.1,30731.25,22793.82
1133351.5594,-4587.32,19103.72,8019.45,34569.74,30666.78,22747.9
1133351.5614,-4574.35,19088.18,7922.08,34567.41,30621.91,22727.59
1133351.5634,-4574.01,19134.91,8022.31,34597.26,30673.27,22765.78
1133351.5654,-4594.76,19169.91,8150.24,34612.09,30729.2,22802.02
1133351.5674,-4607.15,19184.5,8232.64,34618.05,30768.92,22827.96
1133351.5694,-4616.12,19208.58,8348.28,34633.02,30833.77,22873.17
1133351.5714,-4619.74,19181.92,8305.69,34616.71,30812.03,22856.14
1133351.5734,-4615.4,19149.83,8194.59,34601.93,30759.15,22815.23
1133351.5754,-4595.28,19128.37,8083.15,34593.4,30707.94,22779.32
1133351.5774,-4567.81,19096.23,7949.5,34581.0,30649.38,22744.04
1133351.5794,-4559.47,19122.56,7984.11,34602.12,30670.93,22765.69
1133351.5814,-4579.64,19165.14,8122.78,34623.67,30734.92,22812.66
1133351.5834,-4598.05,19182.16,8202.32,34624.53,30765.49,22830.68
1133351.5854,-4610.63,19208.34,8319.19,34638.98,30826.86,22870.69
1133351.5874,-4606.34,19196.42,8337.16,34630.83,30839.59,22875.98
1133351.5894,-4601.77,19153.07,8227.49,34605.55,30779.75,22832.63
1133351.5914,-4596.47,19117.02,8107.33,34586.05,30713.7,22783.43
1133351.5934,-4586.46,19088.99,7980.4,34574.32,30653.77,22748.28
1133351.5954,-4580.21,19096.04,7938.24,34582.09,30637.08,22746.61
1133351.5974,-4585.46,19144.2,8065.13,34612.28,30703.93,22792.15
1133351.5994,-4587.46,19172.1,8168.98,34622.15,30749.23,22821.14
1133351.6014,-4600.14,19198.04,8281.23,34636.36,30801.59,22859.86
1133351.6034,-4617.83,19204.57,8353.43,34635.45,30837.97,22883.56
1133351.6054,-4613.45,19165.18,8264.26,34607.84,30790.62,22846.42
1133351.6074,-4599.29,19129.71,8144.0,34591.58,30728.58,22801.97
1133351.6094,-4587.46,19104.91,8028.27,34578.66,30674.89,22763.64
1133351.6114,-4572.77,19092.56,7926.51,34576.09,30630.59,22738.7
1133351.6134,-4576.25,19138.0,8026.89,34606.6,30680.95,22778.94
1133351.6154,-4587.6,19173.53,8144.24,34621.62,30733.3,22814.75
1133351.6174,-4597.52,19198.28,8244.8,34631.16,30779.32,22845.13
1133351.6194,-4609.73,19220.4,8352.57,34642.13,30835.11,22878.36
1133351.6214,-4608.63,19193.89,8311.89,34626.15,30813.08,22859.24
1133351.6234,-4597.28,19157.03,8189.92,34604.74,30749.75,22814.75
1133351.6254,-4591.56,19133.09,8081.58,34592.58,30695.87,22772.7
1133351.6274,-4583.88,19103.77,7946.92,34581.14,30632.4,22735.98
1133351.6294,-4579.83,19131.57,7983.92,34603.6,30655.48,22762.68
1133351.6314,-4582.02,19169.24,8114.43,34623.77,30721.53,22806.17
1133351.6334,-4589.7,19192.84,8213.57,34633.5,30767.73,22835.92
1133351.6354,-4604.86,19215.11,8323.34,34643.99,30823.76,22874.55
1133351.6374,-4612.21,19204.05,8342.17,34636.31,30833.44,22875.36
1133351.6394,-4603.96,19157.79,8227.87,34608.13,30768.68,22824.05
1133351.6414,-4595.8,19133.14,8118.54,34597.59,30717.33,22786.76
1133351.6434,-4580.45,19104.96,7990.08,34587.96,30659.54,22751.95
1133351.6454,-4568.67,19109.68,7943.54,34596.35,30641.13,22754.1
1133351.6474,-4577.68,19159.75,8074.09,34625.73,30708.98,22806.55
1133351.6494,-4587.03,19189.55,8182.19,34634.07,30753.43,22835.31
1133351.6514,-4600.33,19209.29,8281.76,34642.65,30799.34,22867.06
1133351.6534,-4614.4,19217.68,8350.37,34645.94,30836.92,22888.9
1133351.6554,-4610.63,19184.16,8274.41,34625.25,30798.82,22854.38
1133351.6574,-4597.76,19150.93,8156.49,34609.99,30739.45,22808.84
1133351.6594,-4587.03,19125.85,8042.24,34598.55,30685.86,22773.94
1133351.6614,-4576.16,19110.35,7932.09,34594.06,30634.36,22746.37
1133351.6634,-4576.59,19157.51,8034.42,34621.67,30692.15,22792.39
1133351.6654,-4577.16,19188.5,8146.33,34635.5,30742.65,22827.06
1133351.6674,-4592.47,19212.96,8249.47,34647.75,30788.14,22861.53
1133351.6694,-4607.06,19232.18,8347.61,34658.72,30838.78,22896.2
1133351.6714,-4605.1,19203.33,8318.81,34642.18,30827.43,22881.08
1133351.6734,-4593.42,19162.04,8195.26,34621.39,30764.25,22837.69
1133351.6754,-4584.31,19140.63,8094.41,34613.18,30718.04,22804.45
1133351.6774,-4572.25,19106.1,7945.25,34600.88,30648.57,22761.87
1133351.6794,-4575.83,19134.0,7987.4,34624.29,30674.03,22788.24
1133351.6814,-4592.71,19170.76,8105.71,34640.22,30725.34,22821.76
1133351.6834,-4598.57,19200.71,8211.76,34644.8,30769.97,22845.32
1133351.6854,-4600.33,19224.22,8314.42,34651.62,30818.8,22874.98
1133351.6874,-4607.39,19221.5,8350.33,34646.71,30836.3,22884.99
1133351.6894,-4605.15,19177.77,8231.02,34620.86,30775.98,22838.55
1133351.6914,-4590.23,19150.74,8127.55,34608.65,30726.87,22799.78
1133351.6934,-4563.86,19113.92,7983.69,34589.2,30650.19,22753.86
1133351.6954,-4552.17,19124.8,7952.6,34600.98,30641.23,22761.78
1133351.6974,-4564.05,19168.28,8070.18,34630.97,30705.12,22808.94
1133351.6994,-4574.01,19200.66,8185.82,34645.13,30759.34,22842.41
1133351.7014,-4577.35,19224.84,8277.23,34651.33,30798.68,22865.2
1133351.7034,-4580.59,19241.53,8369.21,34657.91,30844.98,22895.43
1133351.7054,-4571.82,19198.61,8276.61,34630.49,30797.72,22855.81
1133351.7074,-4569.34,19166.38,8167.46,34613.38,30740.69,22812.75
1133351.7094,-4559.09,19136.24,8038.62,34597.64,30673.89,22767.93
1133351.7114,-4539.39,19127.75,7940.53,34593.44,30624.11,22740.08
1133351.7134,-4532.62,19174.01,8034.61,34619.24,30671.41,22775.08
1133351.7154,-4521.99,19218.26,8171.94,34639.7,30736.55,22822.86
1133351.7174,-4518.37,19239.81,8256.87,34646.32,30771.97,22845.46
1133351.7194,-4528.38,19267.04,8375.88,34660.44,30833.82,22886.71
1133351.7214,-4527.38,19238.38,8337.5,34639.93,30811.5,22864.3
1133351.7234,-4506.45,19206.29,8224.44,34619.1,30751.18,22817.28
1133351.7254,-4494.52,19181.02,8109.48,34606.94,30695.25,22778.23
1133351.7274,-4486.28,19156.12,7979.54,34598.07,30637.22,22742.8
1133351.7294,-4477.31,19185.02,8011.34,34618.0,30654.24,22762.83
1133351.7314,-4478.07,19236.38,8156.59,34647.04,30726.25,22815.52
1133351.7334,-4483.18,19256.74,8242.08,34652.09,30761.2,22839.07
1133351.7354,-4499.82,19282.15,8358.57,34663.59,30818.61,22878.94
1133351.7374,-4521.56,19274.48,8382.04,34656.43,30831.96,22884.66
1133351.7394,-4504.2,19239.0,8278.18,34635.6,30779.99,22843.55
1133351.7414,-4462.91,19207.58,8159.26,34616.33,30718.57,22797.92
1133351.7434,-4436.45,19179.87,8031.75,34604.6,30660.2,22761.25
1133351.7454,-4431.68,19184.45,7985.93,34613.47,30644.13,22758.06
1133351.7474,-4447.17,19234.33,8113.15,34643.27,30707.17,22805.74
1133351.7494,-4447.65,19264.65,8219.48,34655.0,30754.28,22834.92
