TimeStamp,Fpz,Gnd,Fz,Cz,CPz,POz
1133018.2096,-1878.07,25799.13,12513.26,42132.43,40430.69,30316.4
1133018.2116,-1892.38,25847.15,12761.64,42150.26,40509.18,30363.47
1133018.2136,-1911.93,25860.93,12897.78,42149.02,40546.8,30384.59
1133018.2156,-1935.82,25897.55,13112.74,42168.81,40626.67,30432.04
1133018.2176,-1946.12,25867.04,13106.82,42147.26,40619.09,30416.06
1133018.2196,-1918.13,25830.8,12913.75,42129.66,40560.39,30378.01
1133018.2216,-1900.77,25790.27,12704.04,42112.78,40486.58,30326.04
1133018.2236,-1886.32,25749.73,12464.29,42094.28,40404.23,30281.17
1133018.2256,-1876.12,25765.09,12422.37,42108.21,40393.21,30290.65
1133018.2276,-1891.95,25825.79,12668.75,42139.3,40478.62,30350.12
1133018.2296,-1908.87,25852.49,12840.84,42142.87,40528.68,30377.68
1133018.2316,-1921.56,25875.67,13030.24,42146.97,40589.86,30412.15
1133018.2336,-1924.09,25878.1,13138.68,42148.12,40630.87,30429.32
1133018.2356,-1912.16,25839.38,12983.23,42132.24,40579.99,30392.36
1133018.2376,-1904.68,25798.28,12768.56,42115.79,40506.03,30339.72
1133018.2396,-1892.66,25760.61,12553.12,42097.19,40430.03,30292.32
1133018.2415,-1868.25,25746.3,12384.32,42091.66,40373.95,30271.82
1133018.2435,-1870.58,25814.92,12594.37,42132.33,40453.58,30333.43
1133018.2455,-1873.45,25860.65,12809.18,42156.46,40527.06,30382.78
1133018.2475,-1899.91,25874.33,12976.7,42158.47,40577.32,30409.24
1133018.2495,-1922.7,25886.73,13150.74,42161.14,40639.31,30441.67
1133018.2515,-1916.27,25859.5,13065.72,42149.26,40615.52,30420.97
1133018.2535,-1906.73,25809.72,12836.12,42123.23,40530.07,30357.94
1133018.2555,-1887.46,25792.03,12659.22,42122.13,40475.52,30322.75
1133018.2575,-1858.0,25759.13,12423.33,42111.45,40400.32,30287.65
1133018.2595,-1854.47,25798.75,12521.17,42137.68,40435.99,30323.22
1133018.2615,-1868.25,25857.79,12765.36,42168.19,40520.96,30381.25
1133018.2635,-1897.1,25873.19,12924.58,42167.57,40566.35,30405.24
1133018.2655,-1915.84,25894.79,13112.31,42174.54,40631.11,30444.58
1133018.2675,-1912.45,25884.35,13132.38,42168.05,40637.93,30442.0
1133018.2695,-1887.42,25838.95,12927.82,42152.36,40572.55,30393.37
1133018.2715,-1874.3,25805.52,12739.99,42140.87,40505.65,30350.45
1133018.2735,-1869.06,25762.13,12496.47,42118.08,40420.01,30301.96
1133018.2755,-1854.37,25784.5,12455.27,42136.48,40415.43,30313.92
1133018.2775,-1864.2,25843.77,12701.7,42164.47,40501.46,30372.05
1133018.2795,-1885.18,25873.28,12886.1,42172.82,40555.24,30400.95
1133018.2815,-1911.88,25889.07,13050.94,42173.15,40601.88,30423.55
1133018.2835,-1922.85,25886.44,13153.98,42163.66,40631.92,30436.09
1133018.2855,-1908.02,25839.62,12998.73,42138.96,40577.32,30396.27
1133018.2875,-1881.12,25810.96,12794.21,42132.53,40513.23,30353.74
1133018.2895,-1877.98,25773.05,12579.01,42116.93,40440.23,30306.82
1133018.2915,-1860.57,25764.18,12402.58,42119.75,40387.83,30284.74
1133018.2935,-1860.0,25823.07,12613.58,42153.13,40465.36,30337.34
1133018.2955,-1873.02,25854.02,12813.24,42162.85,40525.58,30371.67
1133018.2975,-1882.79,25882.06,12990.52,42174.06,40585.95,30413.11
1133018.2995,-1906.25,25897.22,13149.02,42178.06,40639.31,30443.58
1133018.3015,-1910.97,25863.7,13074.11,42159.23,40615.47,30424.79
1133018.3035,-1910.02,25813.25,12847.71,42137.15,40532.64,30370.72
1133018.3055,-1903.2,25784.69,12666.75,42123.56,40471.46,30327.47
1133018.3075,-1868.15,25754.69,12415.79,42114.98,40395.98,30288.65
1133018.3095,-1863.67,25798.13,12531.04,42147.59,40442.85,30329.66
1133018.3115,-1888.56,25828.32,12733.13,42151.17,40499.41,30365.18
1133018.3135,-1889.56,25860.26,12925.34,42160.75,40559.06,30404.33
1133018.3155,-1908.64,25886.11,13108.06,42172.72,40622.14,30440.76
1133018.3175,-1925.8,25869.71,13136.63,42159.51,40632.44,30435.14
1133018.3195,-1907.35,25810.86,12907.65,42127.85,40546.47,30371.67
1133018.3215,-1884.13,25790.6,12741.23,42128.85,40497.12,30338.05
1133018.3235,-1856.85,25757.17,12483.41,42119.79,40416.39,30295.57
1133018.3255,-1849.27,25773.58,12452.65,42137.77,40414.0,30310.87
1133018.3275,-1872.3,25815.59,12668.99,42151.46,40475.8,30351.07
1133018.3295,-1904.92,25848.96,12870.84,42158.32,40537.51,30386.17
1133018.3315,-1920.18,25877.38,13034.92,42172.25,40595.44,30423.31
1133018.3335,-1917.79,25900.08,13186.55,42186.17,40660.34,30458.02
1133018.3355,-1898.0,25852.02,13009.03,42160.42,40599.3,30411.15
1133018.3375,-1896.62,25804.19,12802.84,42133.53,40519.77,30350.35
1133018.3395,-1880.26,25766.85,12570.33,42115.74,40435.51,30298.38
1133018.3415,-1860.62,25759.75,12416.41,42117.98,40392.31,30288.41
1133018.3435,-1859.52,25824.65,12608.1,42157.94,40466.69,30344.54
1133018.3455,-1880.5,25861.65,12833.79,42168.05,40533.55,30386.5
1133018.3475,-1892.42,25873.0,12965.82,42162.23,40567.31,30404.76
1133018.3495,-1906.63,25900.56,13163.85,42173.06,40634.64,30445.53
1133018.3515,-1900.34,25864.18,13071.82,42154.22,40600.35,30419.16
1133018.3535,-1879.26,25830.32,12876.8,42144.16,40538.46,30377.44
1133018.3555,-1874.97,25788.17,12665.89,42124.13,40463.31,30325.42
1133018.3575,-1870.68,25746.49,12427.62,42098.67,40378.62,30278.73
1133018.3595,-1867.68,25783.78,12510.49,42121.03,40409.24,30305.34
1133018.3615,-1887.04,25836.52,12762.5,42148.12,40496.64,30359.8
1133018.3635,-1895.48,25859.55,12906.08,42156.99,40545.37,30395.32
1133018.3655,-1905.73,25888.59,13113.55,42169.58,40614.32,30437.76
1133018.3675,-1911.07,25871.18,13129.52,42157.85,40621.57,30431.18
1133018.3695,-1896.29,25827.84,12934.69,42140.16,40559.34,30387.83
1133018.3715,-1891.42,25790.74,12727.07,42125.42,40487.87,30340.29
1133018.3735,-1884.08,25753.31,12492.71,42108.97,40412.24,30296.95
1133018.3755,-1862.81,25762.61,12428.48,42115.79,40395.07,30296.76
1133018.3775,-1870.92,25818.97,12666.47,42143.83,40472.42,30349.02
1133018.3795,-1883.7,25849.49,12848.9,42155.18,40526.92,30382.83
1133018.3815,-1886.8,25893.41,13060.43,42180.45,40606.65,30436.52
1133018.3835,-1910.83,25884.11,13161.76,42161.8,40632.78,30441.96
1133018.3855,-1911.93,25831.61,12997.3,42130.33,40570.17,30394.13
1133018.3875,-1888.56,25793.7,12790.25,42118.94,40500.22,30344.06
1133018.3895,-1876.88,25756.74,12582.69,42102.44,40426.07,30296.0
1133018.3915,-1855.47,25744.87,12401.63,42100.82,40368.47,30272.63
1133018.3935,-1860.38,25808.77,12597.37,42135.77,40440.8,30329.18
1133018.3955,-1877.55,25840.19,12800.36,42146.02,40504.84,30367.09
1133018.3975,-1895.43,25864.51,12968.73,42154.03,40558.3,30398.47
1133018.3995,-1909.83,25889.3,13154.08,42166.67,40625.86,30439.19
1133018.4015,-1900.53,25863.32,13084.94,42151.31,40605.41,30420.26
1133018.4035,-1904.44,25805.43,12851.38,42120.13,40519.58,30355.74
1133018.4055,-1901.1,25780.11,12666.18,42112.31,40457.06,30312.92
1133018.4075,-1877.26,25759.27,12440.83,42112.12,40393.6,30287.94
1133018.4095,-1876.45,25792.74,12521.27,42137.01,40425.64,30321.17
1133018.4115,-1888.37,25840.95,12755.97,42157.18,40501.6,30367.09
1133018.4135,-1898.24,25861.46,12922.81,42160.23,40550.24,30393.65
1133018.4155,-1896.72,25884.73,13113.64,42171.63,40618.19,30432.32
1133018.4175,-1905.54,25866.18,13139.44,42160.95,40629.39,30430.37
1133018.4195,-1906.68,25813.15,12924.86,42130.43,40553.1,30376.68
1133018.4215,-1887.66,25785.69,12739.33,42122.51,40488.58,30338.48
1133018.4235,-1868.87,25743.87,12505.1,42104.2,40407.85,30293.9
1133018.4255,-1852.94,25756.03,12440.35,42114.93,40389.92,30296.42
1133018.4275,-1870.73,25810.91,12676.34,42137.48,40466.65,30345.11
1133018.4295,-1877.07,25855.97,12870.12,42161.09,40538.94,30390.41
1133018.4315,-1892.38,25882.29,13046.79,42168.57,40597.78,30426.46
1133018.4335,-1901.87,25887.78,13163.23,42169.67,40638.88,30445.01
1133018.4355,-1879.93,25856.35,13031.63,42159.71,40600.26,30417.49
1133018.4375,-1888.85,25798.23,12803.13,42126.42,40506.61,30346.97
1133018.4395,-1884.17,25755.36,12583.35,42103.58,40426.78,30292.99
1133018.4415,-1856.61,25744.87,12398.05,42107.21,40371.66,30277.16
1133018.4435,-1864.81,25809.24,12607.05,42147.55,40450.58,30340.34
1133018.4455,-1881.79,25848.77,12811.71,42163.66,40515.86,30380.59
1133018.4475,-1899.1,25864.94,12983.13,42167.48,40568.45,30407.81
1133018.4495,-1918.36,25883.3,13148.83,42169.53,40622.48,30435.09
1133018.4515,-1929.62,25850.78,13084.46,42148.21,40599.78,30412.34
1133018.4535,-1911.83,25811.63,12857.77,42132.43,40527.25,30359.51
1133018.4555,-1889.66,25792.46,12686.49,42130.57,40475.47,30329.9
1133018.4575,-1873.11,25743.63,12412.84,42107.4,40378.1,30280.26
1133018.4595,-1862.96,25784.83,12510.44,42140.3,40422.16,30323.51
1133018.4615,-1870.01,25833.56,12731.41,42160.8,40491.63,30369.62
1133018.4635,-1883.75,25861.12,12917.23,42162.38,40543.75,30402.47
1133018.4655,-1911.35,25884.06,13092.9,42168.48,40601.78,30430.42
1133018.4675,-1926.95,25880.63,13146.69,42167.48,40626.34,30435.33
1133018.4695,-1914.55,25829.56,12928.34,42141.35,40549.19,30381.64
1133018.4715,-1883.32,25802.38,12759.02,42134.81,40492.4,30342.15
1133018.4735,-1859.95,25760.13,12498.28,42115.22,40404.52,30289.37
1133018.4755,-1858.0,25775.77,12446.69,42129.66,40396.03,30295.66
1133018.4775,-1881.36,25819.5,12656.93,42145.78,40459.11,30331.57
1133018.4795,-1905.49,25847.1,12857.06,42150.55,40515.48,30368.0
1133018.4815,-1912.21,25874.0,13019.71,42167.33,40574.7,30407.1
1133018.4835,-1915.26,25890.21,13173.06,42176.44,40631.92,30439.76
1133018.4855,-1894.28,25847.49,13007.59,42155.22,40576.18,30398.8
1133018.4875,-1884.08,25812.58,12810.04,42136.86,40506.8,30347.73
1133018.4895,-1872.83,25783.35,12590.98,42127.38,40435.03,30304.05
1133018.4915,-1863.86,25764.75,12413.93,42124.32,40381.15,30285.31
1133018.4935,-1879.02,25813.01,12578.11,42148.02,40434.51,30324.65
1133018.4955,-1882.08,25866.42,12817.34,42170.82,40514.43,30381.83
1133018.4975,-1885.03,25882.39,12957.57,42172.39,40557.06,30408.34
1133018.4995,-1898.34,25912.81,13164.57,42186.74,40631.25,30450.25
1133018.5015,-1906.49,25869.42,13074.16,42159.51,40597.25,30417.26
1133018.5035,-1892.04,25836.71,12877.51,42150.07,40536.36,30376.87
1133018.5055,-1884.51,25797.89,12672.24,42133.77,40464.93,30329.85
1133018.5075,-1866.48,25760.46,12437.49,42120.56,40388.21,30290.8
1133018.5095,-1859.38,25796.51,12499.24,42142.83,40413.77,30317.64
1133018.5115,-1871.73,25845.82,12748.67,42158.04,40489.49,30364.66
1133018.5135,-1890.71,25858.93,12888.81,42155.08,40530.73,30384.31
1133018.5155,-1912.5,25888.64,13092.04,42168.91,40602.4,30428.22
1133018.5175,-1923.75,25880.72,13129.43,42165.76,40619.52,30430.61
1133018.5195,-1904.82,25846.01,12945.13,42156.03,40564.35,30397.23
1133018.5215,-1884.89,25815.2,12745.24,42147.93,40501.5,30357.17
1133018.5235,-1882.12,25769.19,12509.4,42125.75,40417.1,30309.11
1133018.5255,-1875.97,25777.15,12428.67,42132.0,40389.59,30306.15
1133018.5275,-1888.7,25829.27,12658.69,42155.56,40465.17,30353.98
1133018.5295,-1894.47,25862.89,12845.28,42165.48,40521.67,30389.31
1133018.5315,-1909.11,25887.16,13030.82,42170.86,40579.47,30420.31
1133018.5335,-1912.88,25901.75,13163.62,42175.35,40631.35,30449.2
1133018.5355,-1907.92,25856.07,13011.22,42151.17,40581.18,30412.25
1133018.5375,-1905.01,25802.33,12784.91,42120.13,40495.21,30350.59
1133018.5395,-1891.47,25776.34,12588.93,42115.17,40432.93,30315.07
1133018.5415,-1858.62,25768.43,12409.12,42125.71,40384.68,30303.15
1133018.5435,-1867.44,25826.5,12588.55,42161.28,40450.24,30350.12
1133018.5455,-1883.22,25860.55,12797.21,42169.39,40511.8,30384.12
1133018.5475,-1906.11,25873.62,12957.29,42165.0,40555.53,30404.86
1133018.5495,-1922.46,25899.41,13150.07,42177.25,40627.77,30448.82
1133018.5515,-1910.31,25877.86,13092.57,42166.67,40613.08,30433.23
1133018.5535,-1907.02,25821.64,12860.44,42136.82,40527.16,30373.29
1133018.5555,-1894.28,25793.27,12670.8,42129.76,40465.88,30334.19
1133018.5575,-1861.33,25773.19,12442.45,42129.09,40400.22,30306.82
1133018.5595,-1860.62,25806.48,12504.05,42148.4,40423.64,30329.9
1133018.5615,-1882.7,25850.16,12736.08,42163.52,40494.11,30372.96
1133018.5635,-1894.9,25880.63,12914.09,42174.25,40549.66,30409.05
1133018.5655,-1918.13,25901.99,13100.29,42180.21,40609.79,30443.48
1133018.5675,-1926.61,25887.25,13132.86,42165.71,40615.13,30437.28
1133018.5695,-1909.97,25829.99,12930.63,42139.68,40544.71,30384.16
1133018.5715,-1898.15,25781.11,12731.74,42120.65,40471.08,30331.42
1133018.5735,-1878.5,25740.44,12507.92,42104.3,40394.26,30284.31
1133018.5755,-1866.44,25737.91,12421.47,42113.64,40367.37,30278.3
1133018.5775,-1876.35,25788.69,12659.12,42144.02,40449.53,30333.0
1133018.5795,-1884.56,25822.59,12852.15,42157.85,40514.86,30374.05
1133018.5815,-1900.05,25845.1,13025.91,42169.48,40576.84,30413.3
1133018.5835,-1909.97,25862.6,13154.41,42179.64,40627.48,30445.05
1133018.5855,-1917.22,25814.44,13013.22,42148.17,40571.12,30402.62
1133018.5875,-1909.3,25769.28,12798.6,42129.38,40494.49,30347.64
1133018.5895,-1886.89,25745.35,12605.57,42122.27,40434.41,30308.35
1133018.5915,-1868.06,25731.14,12400.77,42119.89,40371.18,30280.12
1133018.5935,-1871.3,25784.45,12592.27,42152.79,40443.76,30333.38
1133018.5955,-1880.17,25827.27,12803.27,42172.1,40514.14,30379.44
1133018.5975,-1908.02,25841.29,12972.02,42166.95,40558.01,30405.33
1133018.5995,-1922.61,25858.83,13140.78,42172.68,40613.13,30433.32
1133018.6015,-1920.56,25832.18,13098.29,42160.18,40599.16,30419.02
1133018.6035,-1909.97,25785.26,12872.32,42137.2,40519.05,30362.28
1133018.6055,-1886.32,25760.37,12696.36,42125.42,40460.31,30320.65
1133018.6075,-1859.71,25718.02,12433.63,42111.12,40371.71,30270.34
1133018.6095,-1853.66,25758.41,12511.21,42140.39,40406.99,30305.39
1133018.6115,-1857.38,25821.12,12741.47,42177.01,40493.4,30364.66
1133018.6135,-1876.07,25852.78,12937.12,42186.5,40553.62,30403.28
1133018.6155,-1904.92,25858.45,13094.71,42178.45,40597.4,30421.69
1133018.6175,-1914.02,25856.16,13160.99,42177.83,40626.15,30433.13
1133018.6195,-1907.73,25807.57,12951.85,42154.56,40553.15,30380.92
1133018.6215,-1904.49,25780.11,12774.61,42140.97,40491.3,30337.0
1133018.6235,-1888.61,25740.15,12514.45,42123.23,40406.33,30288.41
1133018.6254,-1866.82,25752.69,12449.22,42137.1,40391.97,30292.42
1133018.6274,-1853.56,25810.77,12673.62,42174.25,40472.89,30348.78
1133018.6294,-1869.96,25837.85,12880.47,42183.02,40534.69,30387.31
1133018.6314,-1892.14,25849.63,13028.67,42180.02,40577.99,30410.77
1133018.6334,-1901.15,25865.65,13191.22,42184.5,40636.97,30444.24
1133018.6354,-1898.1,25813.06,13023.23,42149.6,40571.5,30392.79
1133018.6374,-1885.27,25767.9,12820.96,42125.66,40495.83,30341.25
1133018.6394,-1863.91,25735.76,12601.28,42114.22,40423.64,30296.28
1133018.6414,-1836.63,25726.94,12424.42,42120.99,40375.91,30281.36
1133018.6434,-1843.88,25778.68,12585.16,42153.79,40437.89,30327.09
1133018.6454,-1865.67,25817.3,12814.81,42166.0,40510.04,30366.33
1133018.6474,-1882.36,25834.23,12953.66,42167.81,40550.33,30389.26
1133018.6494,-1905.68,25859.6,13154.08,42179.3,40618.71,30434.14
1133018.6514,-1914.45,25820.35,13080.74,42150.45,40589.0,30405.14
1133018.6534,-1899.67,25780.59,12880.47,42130.62,40522.48,30359.22
1133018.6554,-1880.31,25752.26,12683.92,42123.08,40457.68,30318.45
1133018.6574,-1855.76,25723.84,12454.56,42116.79,40383.3,30286.51
1133018.6594,-1852.37,25753.55,12498.52,42133.53,40398.94,30305.72
1133018.6614,-1869.54,25805.38,12751.01,42159.8,40486.96,30360.99
1133018.6634,-1876.69,25831.56,12905.89,42167.29,40536.6,30392.7
1133018.6654,-1891.09,25867.85,13109.26,42182.5,40607.89,30441.67
1133018.6674,-1919.41,25838.04,13140.3,42155.41,40604.31,30422.64
1133018.6694,-1905.63,25795.65,12954.81,42137.53,40543.89,30376.96
1133018.6714,-1888.61,25762.99,12752.2,42127.71,40477.81,30330.23
1133018.6734,-1887.61,25722.79,12522.94,42109.45,40399.79,30286.7
1133018.6754,-1876.59,25725.42,12429.0,42117.79,40372.47,30282.45
1133018.6774,-1872.35,25791.03,12663.8,42152.51,40457.02,30343.58
1133018.6794,-1879.07,25820.64,12846.09,42156.99,40512.09,30376.87
1133018.6814,-1894.47,25840.0,13022.52,42164.0,40570.88,30411.25
1133018.6834,-1909.88,25844.39,13159.52,42161.23,40613.13,30434.52
1133018.6854,-1904.77,25803.86,13020.42,42140.77,40564.83,30399.37
1133018.6874,-1892.04,25762.85,12803.75,42122.94,40488.87,30343.35
1133018.6894,-1883.98,25731.09,12603.0,42107.78,40419.73,30296.9
1133018.6914,-1873.06,25705.48,12400.91,42102.15,40356.16,30265.48
1133018.6934,-1867.72,25763.8,12573.63,42139.87,40419.58,30313.4
1133018.6954,-1868.92,25812.87,12798.12,42165.95,40501.17,30367.81
1133018.6974,-1893.81,25824.26,12956.91,42161.23,40544.71,30391.36
1133018.6994,-1903.06,25852.25,13151.55,42173.58,40611.65,30430.61
1133018.7014,-1911.12,25818.78,13093.43,42153.6,40589.15,30410.1
1133018.7034,-1892.04,25774.82,12877.28,42133.72,40517.0,30363.52
1133018.7054,-1871.16,25747.97,12692.26,42122.99,40454.06,30321.55
1133018.7074,-1862.34,25705.96,12442.35,42105.2,40371.85,30273.87
1133018.7094,-1876.74,25740.1,12489.03,42128.52,40395.17,30301.81
1133018.7114,-1903.01,25785.26,12724.31,42145.3,40467.79,30350.55
1133018.7134,-1897.05,25816.63,12901.69,42159.04,40528.11,30392.51
1133018.7154,-1906.92,25842.91,13091.61,42166.33,40592.1,30428.27
1133018.7174,-1917.89,25827.36,13135.24,42153.22,40602.88,30423.36
1133018.7194,-1902.77,25781.01,12942.22,42133.19,40540.27,30378.73
1133018.7214,-1886.46,25750.21,12746.38,42125.52,40475.33,30336.34
1133018.7234,-1869.2,25716.83,12528.28,42111.93,40400.61,30290.42
1133018.7254,-1855.52,25723.51,12426.9,42123.99,40375.38,30286.08
1133018.7274,-1871.68,25779.06,12662.08,42155.08,40457.11,30343.68
1133018.7294,-1882.17,25809.24,12850.43,42160.56,40511.18,30377.68
1133018.7314,-1901.91,25831.7,13023.19,42169.48,40572.12,30413.54
1133018.7334,-1918.55,25845.29,13156.84,42174.92,40621.86,30439.52
1133018.7354,-1911.21,25803.86,13032.34,42151.5,40579.51,30405.19
1133018.7374,-1901.48,25750.54,12804.18,42121.75,40490.73,30342.39
1133018.7394,-1877.02,25728.04,12613.82,42117.27,40430.93,30308.06
1133018.7414,-1867.1,25694.9,12387.56,42100.67,40353.26,30265.19
1133018.7434,-1874.45,25749.45,12567.95,42135.05,40423.68,30317.5
1133018.7454,-1883.7,25794.08,12781.86,42155.51,40497.98,30364.56
1133018.7474,-1896.19,25826.36,12966.11,42170.01,40562.68,30405.67
1133018.7494,-1911.93,25848.96,13142.16,42179.16,40621.76,30442.15
1133018.7514,-1918.27,25813.49,13099.2,42154.75,40601.5,30418.83
1133018.7534,-1911.64,25758.7,12865.31,42124.23,40516.86,30357.08
1133018.7554,-1898.67,25728.42,12686.16,42109.49,40452.68,30315.07
1133018.7574,-1880.03,25685.84,12416.98,42092.14,40359.07,30269.58
1133018.7594,-1882.27,25726.66,12480.17,42123.94,40391.74,30304.44
1133018.7614,-1898.81,25778.11,12704.85,42146.83,40466.36,30352.41
1133018.7634,-1909.83,25806.57,12895.54,42153.32,40524.63,30390.5
1133018.7654,-1914.5,25827.17,13070.78,42159.13,40583.71,30423.69
1133018.7674,-1918.22,25825.69,13147.21,42158.8,40616.95,30437.43
1133018.7694,-1921.94,25761.46,12929.06,42119.65,40534.02,30377.15
1133018.7714,-1900.53,25741.82,12760.74,42120.51,40484.58,30345.59
1133018.7734,-1869.63,25704.77,12512.49,42107.49,40403.75,30299.76
1133018.7754,-1865.24,25702.19,12420.32,42113.6,40373.38,30293.9
1133018.7774,-1893.9,25751.59,12627.75,42137.06,40442.19,30336.91
1133018.7794,-1911.02,25792.51,12842.94,42154.13,40513.9,30378.77
1133018.7814,-1913.83,25811.87,12996.48,42158.23,40562.21,30407.48
1133018.7834,-1913.55,25834.71,13169.43,42169.1,40627.1,30443.39
1133018.7854,-1902.53,25790.46,13020.14,42146.5,40576.03,30402.47
1133018.7874,-1888.13,25759.51,12824.25,42131.38,40510.23,30356.32
1133018.7894,-1882.41,25716.26,12598.71,42107.73,40428.02,30299.43
1133018.7914,-1867.34,25691.66,12400.53,42100.05,40361.93,30269.58
1133018.7934,-1871.25,25740.67,12551.26,42129.71,40412.19,30312.21
1133018.7954,-1895.9,25782.54,12788.54,42143.87,40485.96,30357.03
1133018.7974,-1907.3,25799.9,12929.39,42145.92,40530.16,30380.01
1133018.7994,-1917.41,25829.84,13136.34,42160.23,40603.02,30424.22
1133018.8014,-1919.13,25787.98,13076.45,42131.14,40572.98,30392.56
1133018.8034,-1904.92,25747.21,12871.65,42116.55,40504.6,30345.44
1133018.8054,-1889.37,25721.74,12675.43,42107.78,40440.09,30303.15
1133018.8074,-1872.4,25695.85,12443.5,42099.77,40367.75,30268.58
1133018.8094,-1875.97,25723.03,12473.87,42118.55,40383.96,30290.42
1133018.8114,-1887.94,25772.96,12721.49,42139.68,40464.22,30340.72
1133018.8134,-1891.18,25791.46,12869.41,42141.25,40508.66,30364.47
1133018.8154,-1900.15,25822.55,13072.16,42157.23,40579.28,30413.54
1133018.8174,-1917.7,25806.1,13126.71,42143.54,40592.72,30412.01
1133018.8194,-1910.31,25759.18,12937.93,42116.07,40525.92,30364.56
1133018.8214,-1900.48,25722.46,12733.79,42100.1,40454.11,30314.78
1133018.8234,-1882.12,25689.27,12515.12,42090.37,40384.82,30278.3
1133018.8254,-1880.03,25682.98,12399.96,42090.33,40347.15,30266.29
1133018.8274,-1894.09,25733.81,12613.92,42112.16,40418.63,30314.12
1133018.8294,-1902.34,25764.75,12802.98,42122.56,40476.8,30348.45
1133018.8314,-1912.78,25793.13,12988.9,42132.91,40538.36,30385.97
1133018.8334,-1929.33,25803.9,13136.91,42138.53,40593.58,30412.77
1133018.8354,-1925.8,25764.71,13006.26,42114.93,40548.09,30379.06
1133018.8374,-1908.83,25732.42,12794.59,42100.86,40481.72,30337.62
1133018.8394,-1901.77,25708.63,12601.66,42096.76,40421.63,30301.72
1133018.8414,-1893.43,25678.73,12389.47,42087.13,40350.3,30265.81
1133018.8434,-1890.04,25729.71,12543.3,42120.03,40409.0,30315.45
1133018.8454,-1904.06,25757.51,12747.48,42123.08,40464.79,30344.44
1133018.8474,-1903.06,25789.31,12919.14,42136.34,40524.39,30381.49
1133018.8494,-1928.76,25818.49,13117.6,42149.31,40596.92,30424.5
1133018.8514,-1931.24,25784.78,13071.82,42127.19,40573.89,30402.85
1133018.8534,-1909.59,25727.99,12847.23,42097.38,40491.54,30343.58
1133018.8554,-1890.52,25702.81,12665.75,42092.04,40431.79,30304.44
1133018.8574,-1879.98,25665.19,12430.81,42072.73,40350.73,30260.04
1133018.8594,-1874.54,25688.99,12446.64,42088.04,40358.36,30273.49
1133018.8614,-1883.98,25742.01,12687.88,42114.55,40438.13,30324.75
1133018.8634,-1896.91,25774.82,12865.26,42130.38,40500.07,30363.28
1133018.8654,-1920.56,25797.99,13053.13,42139.2,40562.78,30400.47
1133018.8674,-1931.48,25790.41,13111.88,42129.57,40583.09,30403.33
1133018.8694,-1922.08,25745.35,12925.82,42104.63,40517.05,30355.79
1133018.8714,-1900.15,25720.79,12731.79,42097.19,40453.34,30313.78
1133018.8734,-1887.75,25685.93,12521.7,42085.56,40386.68,30276.49
1133018.8754,-1882.74,25675.82,12390.19,42088.04,40344.58,30262.9
1133018.8774,-1895.05,25734.86,12622.5,42120.89,40428.4,30320.27
1133018.8794,-1901.25,25769.62,12816.96,42134.48,40491.4,30359.18
1133018.8814,-1909.92,25791.27,12990.81,42142.83,40550.14,30396.23
1133018.8834,-1936.2,25797.13,13121.56,42143.54,40595.73,30419.4
1133018.8854,-1948.88,25751.64,13001.25,42112.21,40545.85,30376.44
1133018.8874,-1929.0,25713.35,12784.82,42091.33,40465.74,30316.17
1133018.8894,-1901.53,25682.69,12594.27,42076.4,40399.84,30273.58
1133018.8914,-1872.4,25656.42,12367.44,42066.53,40327.46,30241.35
1133018.8934,-1881.12,25717.31,12542.15,42109.3,40401.13,30301.96
1133018.8954,-1887.42,25763.23,12759.26,42134.34,40477.61,30351.36
1133018.8974,-1897.0,25788.17,12938.69,42145.69,40531.64,30387.12
1133018.8994,-1912.64,25811.72,13108.78,42146.64,40583.76,30414.97
1133018.9014,-1916.12,25788.74,13087.99,42128.81,40576.03,30396.13
1133018.9034,-1908.35,25739.24,12863.69,42104.25,40493.64,30337.53
1133018.9054,-1894.43,25719.79,12703.66,42105.39,40444.57,30306.77
1133018.9074,-1891.57,25669.53,12425.71,42079.88,40344.29,30246.79
1133018.9094,-1895.43,25689.27,12447.93,42084.75,40344.62,30254.37
1133018.9114,-1876.55,25757.46,12686.54,42122.32,40435.08,30317.21
1133018.9134,-1876.64,25783.02,12879.56,42130.9,40498.21,30354.93
1133018.9154,-1895.0,25801.52,13049.75,42139.25,40556.05,30390.7
1133018.9174,-1911.97,25804.57,13144.92,42139.82,40592.1,30410.87
1133018.9194,-1896.0,25754.5,12940.55,42113.83,40521.2,30357.79
1133018.9214,-1881.22,25719.84,12758.4,42101.01,40461.35,30316.07
1133018.9234,-1867.72,25681.31,12509.78,42083.46,40378.15,30268.63
1133018.9254,-1858.66,25687.46,12408.07,42096.52,40353.45,30269.77
1133018.9274,-1861.05,25745.54,12620.83,42131.48,40430.03,30323.75
1133018.9294,-1869.34,25779.77,12832.79,42143.92,40499.55,30369.09
1133018.9314,-1879.84,25796.7,12979.75,42146.35,40544.75,30394.7
1133018.9334,-1903.34,25818.78,13155.13,42153.41,40609.22,30426.98
1133018.9354,-1900.1,25777.63,13019.13,42126.42,40557.91,30388.93
1133018.9374,-1895.52,25729.37,12811.23,42100.39,40480.52,30331.62
1133018.9394,-1881.22,25694.8,12602.14,42086.8,40410.0,30286.03
1133018.9414,-1870.11,25669.53,12397.43,42075.59,40341.43,30254.65
1133018.9434,-1880.74,25711.83,12529.61,42102.2,40383.96,30289.56
1133018.9454,-1886.37,25762.75,12773.09,42125.66,40466.03,30338.77
1133018.9474,-1886.89,25786.36,12917.47,42131.91,40513.76,30368.38
1133018.9494,-1905.11,25817.16,13122.89,42146.26,40587.81,30412.11
1133018.9514,-1912.88,25784.69,13084.51,42124.47,40571.74,30390.89
1133018.9534,-1900.39,25737.43,12876.8,42098.48,40499.5,30341.15
1133018.9554,-1887.46,25704.05,12682.01,42088.23,40430.46,30293.04
1133018.9574,-1870.25,25672.01,12449.36,42079.79,40355.26,30255.27
1133018.9594,-1862.72,25703.81,12462.71,42102.2,40367.47,30279.64
1133018.9614,-1881.12,25756.55,12708.95,42124.18,40448.15,30332.14
1133018.9634,-1889.42,25777.2,12862.64,42128.95,40496.78,30361.8
1133018.9654,-1905.73,25807.19,13057.61,42140.63,40563.21,30403.52
1133018.9674,-1920.03,25803.19,13133.1,42133.29,40586.43,30406.67
1133018.9694,-1910.02,25757.36,12953.38,42112.26,40522.53,30359.94
1133018.9714,-1895.48,25714.59,12741.0,42090.42,40446.14,30305.53
1133018.9734,-1872.83,25683.22,12529.09,42082.84,40377.1,30269.01
1133018.9754,-1866.72,25675.44,12401.49,42083.22,40337.9,30257.61
1133018.9774,-1870.44,25730.76,12614.63,42112.55,40411.38,30308.15
1133018.9794,-1879.55,25760.7,12806.23,42120.65,40470.6,30341.63
1133018.9814,-1901.05,25784.4,12981.46,42123.85,40524.63,30373.77
1133018.9834,-1921.46,25800.42,13141.35,42130.19,40585.33,30407.96
1133018.9854,-1908.4,25765.47,13024.38,42117.6,40549.81,30382.59
1133018.9874,-1877.64,25739.39,12820.53,42114.55,40488.39,30342.92
1133018.9894,-1868.68,25704.82,12625.41,42098.81,40419.87,30297.14
1133018.9914,-1857.52,25664.52,12398.15,42077.69,40339.33,30251.55
1133018.9934,-1855.52,25716.21,12539.1,42111.64,40393.31,30297.43
1133018.9954,-1874.16,25760.84,12763.41,42138.3,40472.61,30350.59
1133018.9974,-1899.0,25783.59,12930.63,42143.25,40524.73,30384.12
1133018.9994,-1928.57,25799.75,13118.41,42144.59,40585.9,30414.54
1133019.0014,-1924.09,25775.1,13089.8,42129.28,40576.61,30399.47
1133019.0034,-1903.39,25729.71,12876.66,42104.2,40500.93,30343.25
1133019.0054,-1898.0,25701.14,12686.59,42090.56,40432.89,30295.85
1133019.0074,-1892.66,25659.28,12447.74,42072.44,40350.16,30251.08
1133019.0094,-1879.79,25689.13,12459.18,42102.29,40366.27,30277.54
1133019.0114,-1894.62,25736.38,12697.89,42120.51,40440.85,30322.13
1133019.0134,-1891.71,25772.86,12879.99,42135.43,40501.27,30362.13
1133019.0154,-1909.11,25796.18,13062.43,42142.73,40563.49,30399.23
1133019.0174,-1927.14,25790.46,13132.72,42133.96,40587.67,30409.15
1133019.0194,-1920.18,25735.52,12945.42,42102.2,40518.34,30361.61
1133019.0214,-1898.62,25700.72,12739.52,42083.94,40442.9,30312.73
1133019.0234,-1876.07,25676.4,12536.34,42077.59,40381.1,30273.44
1133019.0254,-1864.53,25666.53,12393.09,42079.93,40340.67,30255.7
1133019.0274,-1869.25,25726.61,12626.03,42115.26,40421.82,30313.4
1133019.0294,-1884.03,25757.03,12819.15,42124.9,40476.95,30349.02
1133019.0314,-1901.72,25777.63,12986.71,42133.29,40534.07,30384.69
1133019.0334,-1904.3,25800.66,13138.68,42144.92,40594.01,30418.54
1133019.0354,-1901.67,25764.13,13039.59,42123.23,40559.96,30388.98
1133019.0374,-1890.33,25719.36,12817.72,42098.62,40474.66,30329.14
1133019.0394,-1891.33,25681.74,12623.36,42078.4,40402.08,30277.21
1133019.0413,-1873.02,25656.18,12387.61,42074.02,40326.27,30241.83
1133019.0433,-1879.55,25708.01,12539.53,42105.92,40383.63,30287.32
1133019.0453,-1885.7,25755.12,12756.4,42124.94,40456.35,30334.29
1133019.0473,-1899.05,25775.67,12932.64,42127.09,40510.23,30369.33
1133019.0493,-1913.88,25795.42,13106.4,42131.1,40569.12,30402.76
1133019.0513,-1926.04,25766.42,13094.62,42107.06,40555.15,30383.97
1133019.0533,-1916.89,25715.16,12867.6,42081.6,40473.85,30321.08
1133019.0553,-1901.1,25690.7,12697.75,42075.88,40419.11,30282.31
1133019.0573,-1878.45,25653.17,12434.67,42064.86,40337.14,30236.63
1133019.0593,-1871.11,25686.93,12458.76,42093.23,40354.07,30265.91
1133019.0613,-1877.07,25737.91,12682.15,42117.74,40428.55,30316.79
1133019.0633,-1894.19,25766.76,12877.61,42122.89,40488.82,30348.97
1133019.0653,-1919.46,25789.74,13044.55,42131.62,40547.19,30385.5
1133019.0673,-1936.96,25793.22,13147.02,42131.48,40584.0,30402.23
1133019.0693,-1930.9,25728.85,12937.69,42090.95,40505.37,30339.53
1133019.0713,-1902.39,25699.09,12758.11,42084.84,40449.53,30304.91
1133019.0733,-1871.3,25670.67,12525.04,42077.74,40375.19,30264.67
1133019.0753,-1869.39,25660.23,12394.48,42076.78,40334.09,30248.45
1133019.0773,-1875.69,25719.74,12604.14,42114.22,40413.19,30309.35
1133019.0793,-1888.9,25763.32,12824.25,42131.76,40487.1,30359.75
1133019.0813,-1917.51,25773.48,12965.11,42131.38,40531.12,30382.78
1133019.0833,-1937.77,25793.51,13145.4,42139.2,40597.49,30417.88
1133019.0853,-1936.63,25745.39,13015.08,42108.97,40547.33,30376.63
1133019.0873,-1922.18,25703.58,12811.38,42087.8,40473.13,30323.94
1133019.0893,-1906.11,25672.63,12604.38,42074.21,40399.84,30275.54
1133019.0913,-1881.22,25651.89,12393.19,42068.72,40333.51,30247.93
1133019.0933,-1879.31,25697.71,12516.07,42096.38,40377.34,30284.79
1133019.0953,-1891.66,25748.07,12758.21,42116.84,40457.83,30334.05
1133019.0973,-1881.31,25782.16,12916.38,42135.86,40517.14,30375.25
1133019.0993,-1909.35,25796.37,13105.63,42134.1,40572.7,30404.05
1133019.1013,-1923.23,25761.99,13076.83,42110.35,40556.29,30383.26
1133019.1033,-1907.87,25728.28,12885.72,42100.53,40496.31,30343.97
1133019.1053,-1887.85,25704.43,12696.84,42087.04,40429.02,30300.29
1133019.1073,-1881.55,25655.51,12446.31,42061.43,40339.24,30245.93
1133019.1093,-1878.83,25673.3,12435.34,42080.41,40345.86,30262.14
1133019.1113,-1883.22,25744.39,12695.41,42122.66,40444.71,30331.57
1133019.1133,-1903.39,25766.8,12853.96,42126.18,40492.21,30360.99
1133019.1153,-1929.33,25779.06,13031.53,42124.09,40546.28,30387.41
1133019.1173,-1931.57,25779.2,13123.8,42122.32,40581.04,30401.76
1133019.1193,-1922.32,25734.19,12946.32,42101.01,40521.86,30359.99
1133019.1213,-1912.78,25696.19,12735.94,42083.84,40448.62,30310.97
1133019.1233,-1905.39,25667.62,12525.23,42074.73,40380.53,30274.01
1133019.1253,-1887.99,25665.0,12387.32,42082.46,40341.05,30265.14
1133019.1273,-1888.61,25715.16,12587.93,42108.11,40407.95,30312.26
1133019.1293,-1901.34,25737.29,12778.09,42109.78,40461.64,30338.48
1133019.1313,-1916.03,25767.71,12961.68,42126.42,40526.78,30382.02
1133019.1333,-1930.52,25791.36,13136.39,42140.92,40593.77,30422.64
1133019.1353,-1919.51,25751.31,13023.28,42113.69,40548.04,30386.88
1133019.1373,-1895.57,25716.02,12808.47,42097.72,40476.95,30338.67
1133019.1393,-1891.09,25679.54,12611.01,42081.31,40403.37,30289.08
1133019.1413,-1885.94,25646.26,12385.32,42067.29,40327.98,30247.12
1133019.1433,-1885.37,25699.67,12510.44,42103.77,40379.96,30295.85
1133019.1453,-1895.38,25740.77,12732.6,42116.69,40448.58,30341.87
1133019.1473,-1909.3,25765.23,12894.49,42117.41,40492.92,30364.18
1133019.1493,-1924.28,25796.94,13099.48,42133.91,40570.31,30407.38
1133019.1513,-1927.04,25778.11,13086.03,42122.13,40568.17,30398.23
1133019.1533,-1911.02,25731.85,12876.94,42105.39,40498.64,30350.64
1133019.1553,-1897.67,25704.1,12689.02,42097.05,40435.75,30309.78
1133019.1573,-1882.17,25669.96,12457.28,42082.93,40359.93,30267.86
1133019.1593,-1879.5,25688.22,12434.82,42099.72,40357.26,30278.73
1133019.1613,-1899.1,25740.72,12676.77,42125.42,40439.52,30333.9
1133019.1633,-1903.72,25768.09,12852.72,42134.96,40494.97,30368.9
1133019.1653,-1912.45,25800.37,13045.65,42152.65,40562.68,30413.77
1133019.1673,-1933.43,25798.23,13128.09,42144.07,40585.95,30421.98
1133019.1693,-1929.95,25750.97,12958.96,42120.6,40528.73,30377.82
1133019.1713,-1900.39,25719.65,12754.49,42113.36,40464.36,30334.0
1133019.1733,-1887.99,25676.3,12542.92,42089.66,40388.88,30280.78
1133019.1753,-1876.45,25661.14,12375.59,42086.08,40334.13,30258.95
1133019.1773,-1895.38,25725.7,12599.61,42123.28,40417.87,30321.27
1133019.1793,-1905.92,25763.8,12803.84,42138.77,40482.1,30361.94
1133019.1813,-1898.38,25786.07,12977.27,42150.65,40543.04,30400.09
1133019.1833,-1904.06,25802.0,13128.23,42158.18,40599.73,30433.56
1133019.1853,-1906.01,25773.05,13043.31,42141.39,40569.83,30408.53
1133019.1873,-1901.15,25726.61,12819.58,42116.41,40488.2,30348.97
1133019.1893,-1898.96,25688.79,12630.27,42096.52,40417.1,30299.86
1133019.1913,-1876.5,25660.18,12386.23,42089.04,40337.19,30263.33
1133019.1933,-1880.36,25707.2,12522.03,42120.6,40389.83,30309.39
1133019.1953,-1897.29,25740.67,12726.12,42126.42,40448.72,30339.91
1133019.1973,-1903.3,25775.63,12918.86,42140.87,40514.33,30383.88
1133019.1993,-1922.85,25791.36,13088.42,42147.36,40572.12,30411.91
1133019.2013,-1936.96,25771.38,13094.95,42130.9,40570.22,30401.42
1133019.2033,-1925.9,25722.03,12873.32,42104.68,40489.39,30348.02
1133019.2053,-1914.07,25694.52,12701.23,42095.28,40431.31,30306.49
1133019.2073,-1898.24,25650.22,12432.72,42072.3,40342.19,30249.27
1133019.2093,-1883.08,25678.11,12435.15,42092.95,40349.58,30270.82
1133019.2113,-1889.52,25724.41,12654.45,42114.69,40420.35,30316.74
1133019.2133,-1900.39,25761.18,12859.78,42131.57,40487.44,30361.47
1133019.2153,-1912.55,25788.83,13033.01,42144.21,40548.76,30398.99
1133019.2173,-1920.56,25797.18,13149.69,42148.79,40595.15,30421.45
1133019.2193,-1914.31,25741.68,12952.47,42115.6,40521.91,30367.28
1133019.2213,-1904.44,25706.53,12763.6,42101.34,40457.06,30323.22
1133019.2233,-1897.76,25662.71,12521.55,42078.79,40371.33,30270.25
1133019.2253,-1878.88,25665.48,12391.09,42090.37,40341.53,30269.15
1133019.2273,-1889.75,25715.26,12582.78,42116.46,40406.18,30313.54
1133019.2293,-1911.64,25746.06,12794.4,42121.08,40465.65,30345.11
1133019.2313,-1919.65,25770.24,12946.89,42130.43,40517.24,30375.1
1133019.2333,-1932.34,25794.46,13137.53,42143.49,40587.05,30416.97
1133019.2353,-1930.67,25752.45,13021.14,42116.74,40543.42,30383.59
1133019.2373,-1925.61,25707.77,12811.33,42091.61,40468.03,30329.76
1133019.2393,-1918.89,25673.06,12608.48,42077.59,40397.84,30280.78
1133019.2413,-1891.23,25655.75,12396.05,42081.55,40337.76,30257.75
1133019.2433,-1902.06,25685.98,12494.61,42098.29,40368.51,30286.7
1133019.2453,-1914.41,25728.75,12734.46,42115.84,40445.95,30332.24
1133019.2473,-1913.12,25753.41,12888.43,42126.33,40497.5,30364.66
1133019.2493,-1928.19,25788.88,13093.47,42143.59,40576.99,30412.77
1133019.2513,-1928.57,25774.96,13097.34,42136.58,40582.95,30410.2
1133019.2533,-1917.46,25725.32,12889.58,42111.74,40507.66,30356.94
1133019.2553,-1903.01,25690.75,12689.88,42092.66,40434.13,30305.39
1133019.2573,-1887.04,25657.85,12452.94,42080.03,40354.92,30265.72
1133019.2593,-1887.23,25673.58,12425.14,42094.47,40350.11,30273.87
1133019.2613,-1889.52,25735.0,12675.0,42127.81,40437.7,30333.28
1133019.2633,-1897.14,25760.51,12841.51,42133.48,40492.87,30368.28
1133019.2653,-1919.08,25776.29,13020.99,42134.86,40547.42,30399.23
1133019.2673,-1930.95,25772.48,13125.37,42127.9,40582.09,30412.2
1133019.2693,-1920.65,25728.28,12955.0,42107.06,40526.2,30370.48
1133019.2713,-1904.06,25692.85,12753.06,42095.33,40457.25,30323.89
1133019.2733,-1893.14,25659.71,12538.1,42082.03,40385.3,30284.17
1133019.2753,-1879.31,25646.26,12382.7,42078.55,40332.47,30264.33
1133019.2773,-1889.85,25701.96,12580.78,42104.01,40396.46,30308.97
1133019.2793,-1912.78,25738.43,12782.67,42117.65,40459.83,30348.83
1133019.2813,-1929.24,25759.27,12950.56,42122.27,40511.18,30374.96
1133019.2833,-1937.01,25782.4,13129.52,42134.0,40581.52,30413.44
1133019.2853,-1922.7,25759.89,13041.69,42129.52,40560.54,30397.99
1133019.2873,-1924.8,25698.71,12808.61,42092.42,40468.89,30331.66
1133019.2893,-1908.02,25671.29,12619.16,42084.41,40406.09,30291.99
1133019.2913,-1893.04,25642.49,12395.34,42074.88,40335.37,30258.47
1133019.2933,-1896.86,25689.56,12501.96,42105.11,40378.72,30298.19
1133019.2953,-1910.59,25736.05,12735.23,42125.52,40454.49,30347.73
1133019.2973,-1921.37,25752.69,12890.25,42123.37,40496.64,30369.91
1133019.2993,-1935.53,25775.72,13086.75,42130.05,40562.87,30405.95
1133019.3013,-1943.25,25756.98,13085.22,42116.69,40564.02,30398.56
1133019.3033,-1930.57,25712.54,12880.76,42096.57,40494.78,30351.59
1133019.3053,-1913.6,25678.54,12685.73,42084.41,40424.78,30304.82
1133019.3073,-1894.57,25642.87,12459.61,42071.97,40350.63,30264.71
1133019.3093,-1882.51,25659.71,12422.71,42084.84,40340.0,30273.11
1133019.3113,-1892.66,25714.16,12664.94,42111.35,40421.73,30326.89
1133019.3133,-1918.6,25727.99,12827.92,42107.4,40467.84,30349.21
1133019.3153,-1931.57,25772.77,13027.38,42133.53,40549.28,30401.95
1133019.3173,-1944.92,25777.44,13124.18,42130.81,40580.95,30414.25
1133019.3193,-1929.33,25729.33,12959.39,42102.25,40522.72,30369.81
1133019.3213,-1912.88,25685.5,12743.43,42082.41,40445.0,30316.5
1133019.3233,-1897.62,25656.99,12546.25,42074.69,40383.15,30281.36
1133019.3253,-1877.5,25643.02,12371.35,42080.31,40333.09,30267.19
1133019.3273,-1891.8,25697.52,12584.97,42110.88,40407.81,30317.45
1133019.3293,-1906.49,25730.28,12785.72,42120.27,40469.41,30351.74
1133019.3313,-1936.96,25743.39,12945.32,42114.88,40509.75,30372.53
1133019.3333,-1955.37,25768.19,13105.78,42124.9,40569.26,30404.29
1133019.3353,-1956.32,25738.34,13033.2,42110.64,40549.09,30386.64
1133019.3373,-1946.35,25685.74,12801.12,42079.6,40463.74,30327.32
1133019.3393,-1921.56,25666.67,12632.32,42078.12,40410.81,30297.57
1133019.3413,-1880.36,25629.62,12384.94,42065.1,40326.89,30254.08
1133019.3433,-1880.46,25669.2,12498.0,42088.28,40365.27,30286.36
1133019.3453,-1899.34,25709.16,12707.76,42101.77,40429.36,30325.94
1133019.3473,-1905.73,25740.77,12896.25,42116.65,40493.4,30366.23
1133019.3493,-1924.09,25766.28,13074.73,42126.85,40557.48,30400.09
1133019.3513,-1931.33,25752.45,13098.96,42117.74,40570.45,30400.42
1133019.3533,-1916.6,25699.28,12877.28,42090.42,40491.78,30348.5
1133019.3553,-1910.4,25672.01,12704.09,42081.31,40433.32,30307.49
1133019.3573,-1892.19,25636.44,12446.88,42068.1,40347.06,30258.23
1133019.3593,-1886.42,25660.57,12427.62,42091.04,40348.11,30275.63
1133019.3613,-1891.8,25711.87,12648.44,42116.69,40423.92,30324.84
1133019.3633,-1908.25,25742.25,12846.28,42122.37,40484.48,30358.75
1133019.3653,-1918.51,25770.62,13020.66,42139.39,40547.28,30403.05
1133019.3673,-1946.54,25763.23,13129.76,42123.66,40580.18,30413.68
1133019.3693,-1937.48,25708.15,12945.94,42090.9,40510.52,30360.18
1133019.3713,-1929.95,25673.82,12759.11,42079.6,40447.91,30317.6
1133019.3733,-1911.26,25644.73,12535.24,42067.34,40373.81,30273.3
1133019.3753,-1888.99,25636.58,12382.13,42070.06,40326.5,30258.85
1133019.3773,-1891.47,25687.22,12569.48,42099.15,40393.98,30305.34
1133019.3793,-1906.25,25727.23,12793.64,42117.6,40467.7,30351.59
1133019.3813,-1914.45,25751.98,12944.7,42130.28,40521.72,30385.21
1133019.3833,-1949.88,25766.85,13124.85,42134.24,40581.61,30417.92
1133019.3853,-1948.31,25728.04,13025.0,42110.45,40546.61,30385.07
1133019.3873,-1921.27,25692.37,12824.92,42095.05,40480.0,30338.77
1133019.3893,-1900.01,25659.23,12626.55,42079.22,40407.38,30293.56
1133019.3913,-1879.17,25632.24,12402.82,42074.21,40334.99,30258.61
1133019.3932,-1887.85,25674.87,12493.95,42100.43,40369.13,30291.18
1133019.3952,-1914.31,25718.98,12729.07,42114.6,40442.81,30337.34
1133019.3972,-1910.02,25747.87,12886.86,42127.42,40496.31,30370.24
1133019.3992,-1922.08,25772.67,13083.75,42136.1,40563.64,30407.34
1133019.4012,-1940.25,25741.25,13083.08,42106.87,40555.43,30387.12
1133019.4032,-1925.99,25701.38,12886.19,42087.94,40490.44,30342.39
1133019.4052,-1917.65,25661.66,12690.12,42070.78,40417.63,30295.52
1133019.4072,-1898.05,25625.23,12455.23,42056.04,40337.85,30252.03
1133019.4092,-1892.61,25643.3,12414.31,42073.4,40331.89,30263.24
1133019.4112,-1904.25,25704.53,12658.17,42108.21,40420.35,30322.32
1133019.4132,-1914.84,25728.85,12825.82,42114.07,40473.61,30350.74
1133019.4152,-1928.76,25755.22,13007.93,42123.47,40537.55,30387.02
1133019.4172,-1954.27,25755.65,13124.85,42120.22,40574.08,30404.71
1133019.4192,-1942.21,25715.59,12964.77,42104.01,40523.01,30368.71
1133019.4212,-1928.04,25674.49,12755.2,42086.65,40450.96,30315.88
1133019.4232,-1910.02,25637.58,12542.15,42069.63,40377.81,30269.2
1133019.4252,-1891.66,25619.46,12370.3,42063.19,40318.68,30244.69
1133019.4272,-1898.15,25678.21,12559.56,42096.86,40388.4,30297.81
1133019.4292,-1918.32,25718.74,12770.8,42109.64,40456.68,30340.06
1133019.4312,-1928.04,25753.69,12948.71,42123.75,40517.05,30379.82
1133019.4332,-1939.25,25774.24,13133.86,42131.86,40583.33,30416.16
1133019.4352,-1931.14,25731.57,13035.25,42103.68,40543.75,30376.96
1133019.4372,-1911.45,25678.64,12815.43,42076.35,40463.4,30318.84
1133019.4392,-1895.62,25653.27,12625.27,42070.3,40402.56,30276.59
1133019.4412,-1887.04,25627.62,12399.87,42067.72,40333.7,30244.07
1133019.4432,-1879.26,25674.44,12493.99,42104.73,40377.05,30287.22
1133019.4452,-1899.58,25709.01,12715.53,42113.36,40446.33,30327.71
1133019.4472,-1924.09,25722.75,12869.93,42110.35,40485.96,30349.16
1133019.4492,-1943.64,25751.4,13071.4,42121.8,40556.39,30396.66
1133019.4512,-1943.21,25739.96,13088.47,42114.79,40565.88,30399.33
1133019.4532,-1921.08,25697.95,12891.82,42098.38,40505.32,30356.79
1133019.4552,-1912.45,25659.8,12689.97,42082.31,40430.46,30307.01
1133019.4572,-1909.35,25618.99,12461.19,42060.33,40346.63,30259.61
1133019.4592,-1897.67,25630.19,12400.68,42071.87,40331.65,30260.76
1133019.4612,-1899.48,25687.27,12643.39,42097.86,40415.43,30312.35
1133019.4632,-1916.84,25712.45,12818.05,42101.1,40464.93,30340.91
1133019.4652,-1936.34,25741.34,13002.3,42115.12,40532.02,30381.73
1133019.4672,-1943.06,25751.64,13113.79,42118.75,40573.17,30402.85
1133019.4692,-1927.47,25724.94,12978.84,42112.02,40537.55,30380.16
1133019.4712,-1931.86,25670.2,12746.14,42078.02,40447.81,30314.02
1133019.4732,-1922.66,25631.0,12544.87,42055.71,40375.43,30264.57
1133019.4752,-1894.95,25616.32,12360.38,42060.52,40319.21,30244.31
1133019.4772,-1898.15,25677.68,12571.57,42099.67,40398.75,30308.3
1133019.4792,-1924.71,25710.01,12770.42,42110.45,40461.02,30347.06
1133019.4812,-1935.48,25734.71,12939.69,42116.27,40516.05,30378.87
1133019.4832,-1940.58,25750.45,13095.52,42119.65,40568.17,30407.34
1133019.4852,-1936.29,25716.59,13032.2,42097.91,40541.8,30383.3
1133019.4872,-1919.56,25666.67,12806.42,42072.21,40460.88,30327.28
1133019.4892,-1906.73,25640.3,12631.23,42063.29,40403.56,30292.47
1133019.4912,-1886.22,25607.26,12374.64,42056.37,40323.12,30250.31
1133019.4932,-1881.7,25658.9,12485.55,42095.09,40375.43,30297.9
1133019.4952,-1897.57,25706.48,12703.8,42115.84,40449.0,30345.25
1133019.4972,-1925.04,25726.27,12881.81,42117.51,40500.22,30373.0
1133019.4992,-1937.25,25751.07,13061.76,42128.0,40561.73,30406.91
1133019.5012,-1946.97,25737.91,13101.48,42117.27,40574.17,30406.91
1133019.5032,-1934.34,25683.55,12886.19,42086.18,40492.21,30347.64
1133019.5052,-1916.12,25659.33,12716.58,42079.64,40435.94,30310.59
1133019.5072,-1900.24,25613.45,12452.99,42059.38,40344.67,30257.13
1133019.5092,-1889.66,25626.71,12411.74,42068.44,40333.56,30264.52
1133019.5112,-1907.97,25675.01,12623.26,42088.9,40399.27,30307.2
1133019.5132,-1917.98,25715.74,12829.11,42107.63,40467.51,30348.11
1133019.5152,-1925.33,25745.39,12999.58,42123.37,40530.97,30387.02
1133019.5172,-1945.69,25755.07,13138.49,42124.23,40578.99,30411.29
1133019.5192,-1945.5,25700.29,12961.48,42092.14,40513.33,30361.13
1133019.5212,-1940.3,25668.29,12771.27,42079.17,40448.72,30314.69
1133019.5232,-1923.32,25631.43,12549.83,42066.63,40374.67,30267.67
1133019.5252,-1898.1,25619.7,12380.32,42067.15,40321.97,30248.36
1133019.5272,-1894.43,25677.4,12557.46,42096.24,40387.83,30296.23
1133019.5292,-1903.39,25717.88,12779.38,42105.58,40454.2,30338.91
1133019.5312,-1896.57,25744.82,12935.35,42120.18,40507.32,30374.82
1133019.5332,-1926.85,25760.22,13119.41,42119.75,40565.92,30403.38
1133019.5352,-1934.05,25718.12,13028.58,42089.37,40530.4,30369.14
1133019.5372,-1923.51,25671.91,12820.29,42063.38,40455.25,30319.17
1133019.5392,-1912.93,25636.87,12624.31,42052.13,40390.93,30278.3
1133019.5412,-1900.1,25599.67,12386.23,42039.83,40313.44,30241.68
1133019.5432,-1902.29,25635.39,12461.09,42067.91,40347.53,30272.92
1133019.5452,-1912.93,25698.14,12714.82,42101.67,40439.42,30333.24
1133019.5472,-1918.41,25722.46,12871.98,42109.88,40489.2,30360.94
1133019.5492,-1933.53,25752.5,13071.44,42127.57,40563.54,30407.05
1133019.5512,-1948.6,25738.05,13101.53,42117.65,40573.98,30409.15
1133019.5532,-1940.25,25686.22,12898.92,42088.66,40501.17,30356.22
1133019.5552,-1924.23,25650.79,12700.85,42071.63,40428.12,30304.53
1133019.5572,-1909.45,25613.26,12467.34,42056.99,40345.39,30255.75
1133019.5592,-1894.09,25629.09,12413.69,42076.26,40335.95,30263.24
1133019.5612,-1904.68,25687.6,12650.87,42107.3,40418.3,30317.69
1133019.5632,-1919.37,25712.87,12821.15,42111.21,40470.75,30345.44
1133019.5652,-1932.57,25742.77,13005.69,42122.99,40534.45,30383.4
1133019.5672,-1948.26,25754.03,13142.64,42124.51,40583.28,30409.77
1133019.5692,-1944.64,25702.67,12977.74,42092.81,40518.43,30360.32
1133019.5712,-1941.49,25644.5,12752.92,42057.33,40428.02,30292.71
1133019.5732,-1922.46,25617.84,12547.73,42049.6,40362.55,30252.98
1133019.5752,-1908.16,25598.67,12370.49,42047.17,40306.29,30229.67
1133019.5772,-1908.25,25656.13,12547.78,42080.31,40373.23,30284.27
1133019.5792,-1915.93,25699.43,12762.21,42099.67,40444.67,30330.61
1133019.5812,-1934.05,25729.04,12933.68,42110.45,40503.17,30368.86
1133019.5832,-1961.33,25753.79,13127.28,42119.41,40573.41,30407.05
1133019.5852,-1967.43,25721.31,13044.84,42099.1,40543.13,30378.82
1133019.5872,-1946.26,25673.15,12827.49,42074.88,40463.88,30322.51
1133019.5892,-1907.73,25644.21,12640.0,42068.06,40399.37,30281.83
1133019.5912,-1885.7,25603.01,12404.25,42048.32,40316.87,30238.58
1133019.5932,-1892.42,25638.11,12466.48,42067.68,40339.95,30260.47
1133019.5952,-1900.96,25687.13,12704.04,42087.08,40421.06,30313.02
1133019.5972,-1904.58,25715.12,12873.46,42100.63,40476.99,30351.93
1133019.5992,-1926.71,25745.35,13072.4,42118.41,40550.9,30396.75
1133019.6012,-1942.59,25728.04,13092.47,42103.96,40559.68,30392.6
1133019.6032,-1944.64,25673.58,12889.01,42069.25,40482.1,30334.05
1133019.6052,-1939.39,25644.83,12693.74,42062.67,40416.87,30286.32
1133019.6072,-1916.03,25610.74,12478.78,42056.04,40350.78,30252.36
1133019.6092,-1904.15,25609.69,12391.85,42059.47,40325.07,30247.02
1133019.6112,-1925.75,25668.77,12633.23,42088.94,40410.76,30302.43
1133019.6132,-1942.78,25703.34,12816.34,42099.48,40466.6,30340.25
1133019.6152,-1960.18,25728.51,12995.77,42104.77,40525.58,30372.81
1133019.6172,-1957.23,25738.0,13113.17,42105.97,40568.26,30393.37
1133019.6192,-1945.11,25689.56,12969.78,42081.84,40515.38,30356.22
1133019.6212,-1928.33,25649.65,12749.72,42065.48,40439.42,30305.91
1133019.6232,-1915.03,25624.09,12567.57,42054.61,40381.1,30271.15
1133019.6252,-1899.19,25598.96,12362.29,42045.74,40312.77,30240.44
1133019.6272,-1905.87,25657.85,12556.75,42079.84,40384.73,30297.81
1133019.6292,-1910.88,25702.96,12767.32,42101.34,40458.64,30344.44
1133019.6312,-1928.47,25720.65,12931.78,42102.01,40506.03,30370.0
1133019.6332,-1946.88,25737.81,13093.04,42106.82,40561.87,30399.14
1133019.6352,-1942.44,25716.36,13049.56,42094.86,40551.0,30387.69
1133019.6372,-1936.63,25662.66,12819.67,42070.92,40468.13,30328.75
1133019.6392,-1927.42,25634.63,12645.87,42060.05,40406.9,30289.32
1133019.6412,-1904.73,25604.25,12391.9,42050.18,40324.55,30250.36
1133019.6432,-1908.49,25648.98,12479.78,42082.08,40361.93,30286.74
1133019.6452,-1936.91,25682.93,12688.78,42086.61,40418.44,30317.5
1133019.6472,-1952.22,25711.68,12874.99,42095.48,40480.76,30350.97
1133019.6492,-1943.16,25739.1,13056.66,42112.02,40550.38,30391.98
1133019.6512,-1935.39,25728.66,13111.4,42108.02,40571.03,30399.09
1133019.6532,-1927.9,25674.58,12896.35,42077.31,40492.68,30343.11
1133019.6552,-1923.7,25641.54,12714.67,42063.67,40430.98,30298.76
1133019.6572,-1900.77,25604.73,12467.2,42050.8,40347.44,30253.46
1133019.6592,-1894.0,25617.65,12404.68,42062.48,40327.74,30251.22
1133019.6612,-1911.69,25669.58,12619.83,42086.65,40398.79,30295.9
1133019.6632,-1930.19,25707.63,12825.68,42100.63,40466.12,30338.05
1133019.6652,-1942.83,25734.24,12991.72,42113.36,40527.63,30376.96
1133019.6672,-1960.23,25741.91,13138.58,42120.65,40584.0,30407.72
1133019.6692,-1955.03,25693.66,12973.36,42091.28,40522.77,30360.18
1133019.6712,-1945.21,25656.61,12777.0,42072.44,40453.15,30313.69
1133019.6732,-1924.99,25618.6,12560.18,42055.9,40373.66,30263.0
1133019.6752,-1902.68,25601.58,12377.31,42055.85,40318.02,30241.16
1133019.6772,-1896.48,25652.89,12544.82,42085.46,40380.58,30284.31
1133019.6792,-1895.52,25700.72,12779.62,42108.06,40458.87,30335.62
1133019.6812,-1910.4,25725.94,12933.68,42117.31,40511.09,30369.95
1133019.6832,-1943.87,25740.1,13116.55,42115.55,40567.55,30400.09
1133019.6852,-1943.25,25709.92,13047.51,42098.67,40542.18,30375.91
1133019.6872,-1928.0,25671.63,12844.99,42085.37,40475.75,30332.04
1133019.6892,-1918.36,25641.92,12651.11,42065.43,40405.47,30285.74
1133019.6912,-1900.43,25606.92,12413.69,42054.99,40326.31,30247.83
1133019.6932,-1896.81,25646.31,12481.26,42087.37,40361.12,30282.45
1133019.6952,-1925.61,25680.83,12705.95,42091.99,40424.16,30317.17
1133019.6972,-1922.94,25704.43,12862.87,42099.53,40478.19,30348.16
1133019.6992,-1924.32,25741.44,13063.62,42121.03,40554.05,30397.18
1133019.7012,-1949.45,25726.27,13105.06,42105.16,40564.64,30393.7
1133019.7032,-1953.75,25680.74,12908.7,42080.69,40494.4,30339.67
1133019.7052,-1939.58,25648.55,12715.1,42065.1,40425.07,30289.13
1133019.7072,-1899.62,25616.74,12485.41,42056.76,40353.4,30249.55
1133019.7092,-1895.24,25613.88,12398.86,42061.05,40328.03,30244.26
1133019.7112,-1921.65,25663.28,12619.26,42082.12,40398.79,30291.94
1133019.7132,-1929.09,25688.99,12802.6,42091.14,40457.16,30329.14
1133019.7152,-1925.33,25721.03,12982.89,42107.63,40525.39,30373.39
1133019.7172,-1942.49,25729.71,13124.52,42103.87,40571.84,30400.76
1133019.7192,-1936.44,25690.32,12974.6,42080.6,40519.86,30362.32
1133019.7212,-1921.99,25653.32,12766.27,42063.77,40447.05,30310.97
1133019.7232,-1906.59,25621.75,12563.61,42050.8,40374.38,30270.39
1133019.7252,-1889.32,25599.96,12376.21,42044.02,40314.25,30244.07
1133019.7272,-1898.62,25646.17,12535.38,42070.2,40373.62,30280.78
1133019.7292,-1909.35,25688.79,12752.53,42091.8,40448.86,30326.51
1133019.7312,-1925.09,25717.26,12919.95,42105.3,40503.98,30362.47
1133019.7332,-1957.94,25729.8,13106.68,42102.15,40562.44,30389.84
1133019.7352,-1961.8,25700.05,13042.5,42084.79,40541.22,30369.52
1133019.7372,-1947.64,25656.56,12830.64,42065.48,40468.41,30318.69
1133019.7392,-1931.14,25626.33,12632.28,42051.61,40397.36,30271.15
1133019.7412,-1905.25,25593.71,12401.39,42037.4,40320.35,30232.15
1133019.7432,-1891.47,25626.09,12448.5,42064.24,40344.67,30260.95
1133019.7451,-1908.92,25670.87,12683.3,42082.98,40421.78,30308.25
1133019.7471,-1922.94,25703.91,12853.81,42093.66,40477.81,30343.49
1133019.7491,-1952.22,25729.33,13051.42,42103.39,40546.52,30386.17
1133019.7511,-1968.91,25710.16,13082.08,42083.41,40551.0,30378.63
1133019.7531,-1952.31,25664.33,12893.3,42063.53,40488.06,30336.19
1133019.7551,-1934.43,25628.62,12692.74,42048.51,40414.24,30289.46
1133019.7571,-1920.27,25592.14,12474.01,42031.39,40338.71,30244.02
1133019.7591,-1907.92,25597.29,12376.26,42041.02,40307.57,30237.49
1133019.7611,-1925.99,25660.09,12616.49,42075.31,40397.98,30297.52
1133019.7631,-1936.15,25699.48,12807.66,42096.33,40466.17,30343.82
1133019.7651,-1953.08,25718.6,12983.75,42098.34,40524.44,30378.01
1133019.7671,-1960.75,25725.42,13104.96,42097.24,40565.64,30395.08
1133019.7691,-1958.94,25685.27,12973.02,42075.93,40519.86,30358.99
1133019.7711,-1952.93,25642.92,12746.0,42056.9,40438.61,30305.1
1133019.7731,-1924.23,25616.12,12568.19,42047.31,40380.29,30272.15
1133019.7751,-1887.04,25595.0,12356.24,42044.84,40315.2,30244.4
1133019.7771,-1904.63,25651.41,12538.63,42076.59,40384.49,30296.62
1133019.7791,-1924.8,25688.7,12747.72,42089.71,40449.34,30334.86
1133019.7811,-1924.56,25712.87,12918.43,42096.86,40500.6,30371.38
1133019.7831,-1942.44,25720.74,13071.25,42090.42,40544.09,30390.89
1133019.7851,-1947.74,25692.61,13035.25,42069.92,40530.54,30374.34
1133019.7871,-1940.49,25647.93,12815.62,42046.93,40451.72,30321.17
1133019.7891,-1931.48,25625.14,12646.44,42044.64,40399.7,30287.17
1133019.7911,-1908.16,25584.56,12381.65,42031.2,40312.53,30239.54
1133019.7931,-1899.05,25627.43,12452.08,42064.86,40347.63,30274.3
1133019.7951,-1915.03,25671.44,12670.33,42084.89,40413.58,30313.54
1133019.7971,-1931.81,25704.1,12861.25,42095.38,40475.99,30352.02
1133019.7991,-1951.79,25725.08,13035.73,42102.48,40535.31,30385.55
1133019.8011,-1956.65,25721.7,13099.39,42098.67,40562.83,30396.23
1133019.8031,-1942.73,25669.15,12893.15,42070.44,40487.77,30341.58
1133019.8051,-1939.63,25640.87,12716.91,42059.38,40426.5,30299.71
1133019.8071,-1921.42,25607.49,12473.25,42047.6,40346.06,30254.27
1133019.8091,-1904.39,25615.6,12396.34,42063.53,40328.94,30256.27
1133019.8111,-1912.45,25670.1,12611.92,42091.66,40404.13,30307.63
1133019.8131,-1927.71,25711.78,12821.58,42104.44,40473.28,30352.98
1133019.8151,-1953.08,25724.32,12971.78,42101.67,40515.71,30376.34
1133019.8171,-1970.82,25727.8,13115.07,42100.63,40564.21,30394.89
1133019.8191,-1950.36,25684.12,12966.01,42076.07,40512.42,30354.88
1133019.8211,-1946.21,25634.58,12757.73,42048.6,40429.41,30297.76
1133019.8231,-1928.62,25601.44,12546.11,42038.49,40359.36,30255.23
1133019.8251,-1907.3,25589.47,12355.85,42041.45,40306.67,30240.21
1133019.8271,-1919.03,25639.39,12510.92,42066.87,40359.88,30280.64
1133019.8291,-1931.86,25682.98,12737.7,42082.89,40430.46,30324.08
1133019.8311,-1939.3,25708.63,12890.86,42089.99,40480.33,30356.7
1133019.8331,-1968.86,25732.57,13085.89,42103.3,40550.43,30396.42
1133019.8351,-1970.86,25703.86,13031.2,42087.13,40533.98,30377.25
1133019.8371,-1951.98,25664.76,12829.26,42069.01,40463.93,30330.18
1133019.8391,-1934.29,25637.92,12646.15,42063.38,40403.9,30293.47
1133019.8411,-1918.7,25602.96,12403.92,42050.18,40324.03,30253.18
1133019.8431,-1926.28,25621.08,12433.63,42059.0,40329.18,30263.86
1133019.8451,-1929.62,25682.26,12686.16,42089.75,40414.39,30320.55
1133019.8471,-1939.73,25707.44,12846.76,42094.04,40466.22,30350.4
1133019.8491,-1962.52,25723.41,13022.19,42094.9,40522.06,30381.83
1133019.8511,-1970.86,25710.73,13080.88,42084.56,40543.08,30382.54
1133019.8531,-1958.66,25666.86,12892.06,42066.77,40480.67,30338.24
1133019.8551,-1949.02,25636.72,12699.8,42056.99,40415.2,30296.14
1133019.8571,-1923.9,25605.11,12470.49,42045.07,40338.57,30254.27
1133019.8591,-1915.17,25601.68,12371.45,42045.74,40306.29,30242.97
1133019.8611,-1927.23,25659.66,12593.18,42075.02,40384.73,30296.23
1133019.8631,-1941.59,25690.89,12779.81,42087.61,40443.71,30335.86
1133019.8651,-1956.03,25712.25,12950.52,42094.52,40498.45,30369.24
1133019.8671,-1970.58,25727.18,13107.4,42100.48,40555.82,30400.23
1133019.8691,-1960.47,25688.7,12970.02,42078.31,40511.33,30363.52
1133019.8711,-1945.78,25653.65,12762.83,42063.96,40442.47,30314.4
1133019.8731,-1929.95,25619.7,12557.7,42050.94,40372.04,30269.86
1133019.8751,-1912.31,25593.67,12359.43,42044.93,40306.43,30241.83
1133019.8771,-1918.84,25642.06,12508.54,42075.07,40358.12,30285.51
1133019.8791,-1940.97,25677.87,12726.21,42086.56,40424.97,30326.99
1133019.8811,-1948.88,25704.86,12894.3,42093.66,40475.13,30359.27
1133019.8831,-1964.14,25733.52,13093.71,42104.92,40548.71,30398.23
1133019.8851,-1971.53,25700.57,13036.82,42083.94,40524.25,30374.39
1133019.8871,-1954.89,25656.66,12831.5,42072.25,40459.07,30328.37
1133019.8891,-1952.27,25619.08,12629.08,42056.14,40387.68,30273.58
1133019.8911,-1937.58,25588.09,12399.58,42041.93,40311.77,30232.53
1133019.8931,-1927.19,25621.89,12428.71,42065.43,40326.08,30256.23
1133019.8951,-1920.18,25677.54,12672.38,42093.76,40413.19,30314.4
1133019.8971,-1923.08,25706.1,12839.37,42103.1,40468.6,30347.16
1133019.8991,-1943.97,25730.04,13032.39,42110.64,40534.17,30387.31
1133019.9011,-1950.69,25722.55,13086.37,42105.82,40557.82,30396.61
1133019.9031,-1945.92,25670.48,12897.83,42079.55,40490.2,30350.45
1133019.9051,-1934.62,25630.62,12687.21,42060.9,40410.05,30297.43
1133019.9071,-1917.41,25602.53,12480.93,42050.46,40346.67,30260.71
1133019.9091,-1905.44,25606.06,12366.82,42057.52,40313.53,30249.12
1133019.9111,-1916.07,25668.19,12599.99,42090.42,40394.88,30304.63
1133019.9131,-1934.81,25693.94,12780.0,42091.33,40440.56,30329.95
1133019.9151,-1941.59,25728.61,12967.59,42107.4,40506.89,30377.68
1133019.9171,-1958.32,25743.87,13102.53,42112.98,40556.01,30405.29
1133019.9191,-1969.15,25691.46,12971.07,42080.84,40505.6,30361.13
1133019.9211,-1948.21,25649.36,12749.63,42066.58,40429.55,30312.59
1133019.9231,-1932.38,25628.47,12577.58,42061.29,40376.62,30281.5
1133019.9251,-1916.93,25598.0,12347.8,42049.37,40302.71,30246.4
1133019.9271,-1930.57,25645.4,12516.45,42080.98,40365.22,30294.33
1133019.9291,-1947.4,25685.36,12727.26,42092.19,40432.65,30331.19
1133019.9311,-1958.47,25710.44,12900.74,42100.72,40489.49,30365.85
1133019.9331,-1970.39,25732.42,13064.1,42110.73,40549.0,30401.66
1133019.9351,-1980.4,25705.58,13037.87,42093.33,40537.65,30384.73
1133019.9371,-1950.17,25664.9,12824.49,42076.74,40466.12,30335.86
1133019.9391,-1930.81,25640.82,12655.83,42070.63,40410.43,30299.09
1133019.9411,-1916.36,25598.91,12391.38,42053.94,40321.02,30252.41
1133019.9431,-1914.22,25640.97,12445.59,42085.6,40351.35,30286.03
1133019.9451,-1930.48,25690.75,12665.32,42105.54,40423.21,30331.71
1133019.9471,-1928.28,25722.17,12857.49,42115.17,40482.43,30371.15
1133019.9491,-1956.42,25720.22,13010.74,42097.43,40517.0,30380.44
1133019.9511,-1967.86,25717.55,13090.42,42097.29,40546.95,30391.32
1133019.9531,-1959.75,25671.06,12893.92,42072.78,40478.62,30341.2
1133019.9551,-1949.93,25647.36,12715.63,42063.62,40420.2,30299.71
1133019.9571,-1931.05,25608.26,12470.39,42046.27,40336.9,30248.6
1133019.9591,-1911.83,25611.31,12373.16,42055.9,40312.34,30248.41
1133019.9611,-1912.4,25670.58,12586.98,42089.09,40389.4,30301.57
1133019.9631,-1932.57,25704.91,12792.02,42099.39,40455.92,30339.86
1133019.9651,-1948.83,25724.7,12954.05,42107.73,40508.51,30372.43
1133019.9671,-1961.8,25745.2,13123.23,42119.46,40570.6,30409.91
1133019.9691,-1951.5,25702.62,12986.09,42094.81,40523.44,30370.76
1133019.9711,-1946.21,25664.38,12786.06,42076.26,40450.86,30321.08
1133019.9731,-1942.01,25624.04,12571.48,42055.85,40370.42,30269.53
1133019.9751,-1913.64,25597.81,12363.53,42050.99,40303.43,30236.87
1133019.9771,-1910.16,25649.46,12511.4,42080.41,40355.78,30279.21
1133019.9791,-1929.0,25692.23,12737.7,42092.76,40426.69,30321.94
1133019.9811,-1944.4,25711.97,12888.72,42093.71,40471.46,30350.83
1133019.9831,-1959.28,25739.96,13090.71,42109.3,40548.47,30397.56
1133019.9851,-1975.63,25705.29,13043.93,42086.51,40532.07,30374.82
1133019.9871,-1961.23,25668.43,12841.46,42072.35,40465.03,30329.33
1133019.9891,-1938.82,25635.01,12649.2,42054.9,40393.07,30281.79
1133019.9911,-1904.15,25598.48,12405.78,42041.26,40313.44,30243.26
1133019.9931,-1900.63,25621.46,12428.0,42059.14,40326.41,30261.19
1133019.9951,-1917.17,25672.92,12671.52,42084.13,40410.38,30313.4
1133019.9971,-1937.01,25695.61,12837.94,42089.32,40460.54,30347.45
1133019.9991,-1971.2,25723.17,13015.56,42095.62,40517.91,30380.11
1133020.0011,-1985.03,25720.17,13091.47,42087.85,40542.51,30386.5
1133020.0031,-1959.28,25669.43,12901.88,42060.9,40475.9,30335.72
1133020.0051,-1934.62,25633.48,12707.62,42047.46,40407.95,30286.12
1133020.0071,-1915.69,25600.15,12483.88,42037.21,40337.23,30243.92
1133020.0091,-1903.77,25594.19,12369.68,42038.59,40299.47,30231.19
1133020.0111,-1919.84,25649.03,12585.31,42066.01,40370.99,30280.5
1133020.0131,-1945.92,25681.45,12772.13,42072.73,40430.22,30315.55
1133020.0151,-1948.93,25718.31,12947.51,42091.8,40495.26,30361.18
1133020.0171,-1962.38,25738.58,13117.7,42101.34,40559.3,30399.8
1133020.0191,-1957.51,25694.09,12983.37,42074.11,40506.8,30357.56
1133020.0211,-1934.86,25658.85,12781.34,42060.14,40437.66,30312.02
1133020.0231,-1909.64,25631.34,12581.78,42054.04,40372.04,30274.63
1133020.0251,-1896.81,25598.05,12368.97,42039.35,40302.42,30236.63
1133020.0271,-1906.97,25643.92,12504.87,42065.34,40352.3,30274.06
1133020.0291,-1926.71,25686.7,12726.88,42079.64,40420.73,30316.88
1133020.0311,-1939.49,25711.92,12887.62,42087.23,40472.08,30348.83
1133020.0331,-1952.93,25741.72,13091.9,42103.25,40548.85,30393.32
1133020.0351,-1954.22,25712.59,13050.75,42085.18,40532.74,30377.73
1133020.0371,-1936.63,25666.14,12849.19,42067.01,40464.6,30328.47
1133020.0391,-1928.28,25634.24,12653.11,42054.66,40397.27,30279.21
1133020.0411,-1922.37,25594.43,12420.56,42037.16,40319.4,30236.72
1133020.0431,-1917.41,25612.64,12420.27,42048.84,40320.74,30252.41
1133020.0451,-1928.33,25668.34,12664.7,42076.26,40404.56,30309.01
1133020.0471,-1939.73,25694.13,12832.93,42086.32,40456.01,30339.48
1133020.0491,-1946.26,25732.23,13033.25,42102.96,40531.83,30386.83
1133020.0511,-1951.65,25732.23,13102.96,42101.34,40559.2,30396.89
1133020.0531,-1959.51,25669.53,12912.99,42064.81,40483.86,30339.05
1133020.0551,-1946.64,25632.77,12701.85,42047.98,40407.09,30288.65
1133020.0571,-1932.48,25605.06,12505.25,42042.69,40346.06,30255.32
1133020.0591,-1914.31,25602.15,12373.78,42051.61,40309.58,30245.36
1133020.0611,-1924.61,25659.23,12601.52,42084.89,40390.78,30302.0
1133020.0631,-1934.96,25695.52,12796.31,42097.62,40450.05,30338.39
1133020.0651,-1946.69,25718.17,12967.16,42099.1,40504.51,30372.05
1133020.0671,-1949.41,25739.58,13113.45,42106.35,40557.25,30400.09
1133020.0691,-1938.44,25700.14,13001.63,42082.31,40515.14,30361.13
1133020.0711,-1922.18,25648.26,12768.22,42050.27,40425.73,30295.8
1133020.0731,-1908.11,25619.32,12594.51,42035.39,40366.13,30257.09
1133020.0751,-1891.52,25588.56,12356.28,42024.95,40287.07,30220.7
1133020.0771,-1899.53,25643.26,12515.45,42063.1,40350.78,30275.78
1133020.0791,-1920.37,25681.02,12730.31,42082.12,40426.31,30323.89
1133020.0811,-1942.83,25701.57,12898.88,42088.47,40484.15,30358.46
1133020.0831,-1952.08,25720.41,13059.76,42091.57,40536.5,30384.69
1133020.0851,-1952.65,25703.77,13057.57,42082.74,40541.7,30379.82
1133020.0871,-1944.26,25649.17,12836.6,42057.28,40459.3,30324.18
1133020.0891,-1927.95,25632.53,12674.95,42058.85,40408.43,30294.37
1133020.0911,-1917.22,25586.8,12405.68,42038.45,40314.73,30241.21
1133020.0931,-1916.84,25612.55,12426.33,42054.32,40325.84,30259.52
1133020.0951,-1913.69,25674.06,12657.45,42086.75,40409.9,30316.55
1133020.0971,-1933.24,25700.95,12844.8,42090.42,40464.45,30347.54
1133020.0991,-1954.13,25717.5,13016.99,42092.47,40515.43,30374.01
1133020.1011,-1965.76,25719.31,13111.07,42094.33,40552.05,30392.46
1133020.1031,-1950.22,25671.01,12914.47,42068.49,40485.77,30344.06
1133020.1051,-1929.62,25638.39,12731.55,42053.23,40418.73,30295.8
1133020.1071,-1910.31,25597.05,12491.75,42032.77,40331.51,30239.97
1133020.1091,-1905.78,25593.81,12371.54,42037.78,40295.94,30229.38
1133020.1111,-1918.27,25648.12,12576.53,42067.82,40370.14,30284.17
1133020.1131,-1930.19,25688.46,12790.87,42087.23,40445.28,30329.9
1133020.1151,-1941.25,25710.06,12951.57,42093.95,40494.45,30360.27
1133020.1171,-1962.04,25726.75,13115.84,42094.43,40549.71,30387.6
1133020.1191,-1948.07,25687.98,12990.33,42072.83,40507.23,30353.93
1133020.1211,-1938.58,25644.35,12783.48,42052.46,40433.08,30302.81
1133020.1231,-1930.43,25607.3,12579.39,42036.82,40363.22,30256.32
1133020.1251,-1919.17,25579.41,12358.71,42024.52,40289.17,30217.89
1133020.1271,-1923.08,25626.47,12490.7,42051.22,40338.19,30260.04
1133020.129,-1931.52,25676.78,12728.88,42077.02,40420.68,30317.83
1133020.131,-1945.54,25693.32,12872.89,42075.35,40464.69,30342.87
1133020.133,-1963.85,25718.22,13066.34,42085.6,40532.16,30382.4
1133020.135,-1967.0,25696.04,13046.65,42070.35,40524.49,30371.62
1133020.137,-1951.74,25643.83,12833.31,42044.93,40446.33,30314.74
1133020.139,-1939.2,25609.54,12645.06,42030.1,40378.29,30267.1
1133020.141,-1920.27,25580.79,12406.83,42020.99,40303.19,30230.0
1133020.143,-1900.48,25613.45,12418.51,42048.6,40320.12,30255.46
1133020.145,-1914.84,25660.57,12654.31,42068.72,40395.74,30306.49
1133020.147,-1926.8,25682.31,12823.58,42076.64,40448.15,30337.86
1133020.149,-1935.34,25717.64,13010.55,42096.81,40519.29,30380.4
1133020.151,-1955.6,25710.2,13098.58,42084.41,40543.04,30383.35
1133020.153,-1947.59,25661.71,12915.8,42058.85,40480.67,30336.67
1133020.155,-1934.15,25629.33,12720.97,42045.03,40414.1,30290.13
1133020.157,-1914.98,25600.96,12501.38,42035.49,40343.0,30247.07
1133020.159,-1907.02,25593.62,12374.12,42037.44,40302.95,30233.2
1133020.161,-1927.23,25647.07,12576.49,42066.2,40371.52,30280.4
1133020.163,-1951.03,25678.78,12771.27,42076.31,40431.31,30315.83
1133020.165,-1960.28,25702.19,12936.5,42081.6,40481.62,30347.97
1133020.167,-1967.38,25722.03,13113.02,42089.75,40544.32,30382.59
1133020.169,-1949.26,25690.84,12999.54,42074.26,40508.18,30356.36
1133020.171,-1938.87,25639.78,12783.05,42045.79,40430.6,30295.14
1133020.173,-1919.89,25605.2,12579.16,42032.39,40357.83,30250.36
1133020.175,-1901.67,25575.45,12364.53,42020.95,40290.46,30217.56
1133020.177,-1914.26,25625.23,12486.41,42050.89,40340.24,30258.75
1133020.179,-1933.29,25676.3,12721.83,42076.83,40421.54,30313.16
1133020.181,-1945.73,25690.03,12875.61,42078.17,40461.83,30339.1
1133020.183,-1956.03,25714.45,13075.35,42088.8,40533.02,30383.64
1133020.185,-1959.75,25689.41,13047.03,42071.54,40524.2,30371.29
1133020.187,-1953.89,25636.77,12837.7,42041.69,40445.05,30315.55
1133020.189,-1937.48,25604.3,12637.9,42026.72,40375.43,30266.19
1133020.191,-1914.6,25567.92,12412.45,42012.27,40299.18,30224.42
1133020.193,-1912.02,25582.22,12396.62,42021.47,40293.03,30229.62
1133020.195,-1929.28,25639.01,12642.81,42051.94,40378.67,30287.41
1133020.197,-1939.73,25670.96,12812.9,42065.34,40433.36,30324.22
1133020.199,-1956.51,25701.38,13005.07,42075.73,40501.22,30365.76
1133020.201,-1963.28,25700.33,13087.08,42071.59,40527.87,30376.58
1133020.203,-1951.27,25658.56,12920.14,42052.8,40472.66,30338.1
1133020.205,-1939.15,25618.27,12705.61,42035.2,40395.41,30283.22
1133020.207,-1925.52,25586.08,12505.58,42021.47,40328.03,30244.07
1133020.209,-1910.02,25579.12,12356.09,42027.1,40286.5,30226.62
1133020.211,-1914.07,25649.5,12590.6,42068.63,40375.76,30290.94
1133020.213,-1923.66,25686.89,12789.35,42083.98,40437.7,30329.52
1133020.215,-1944.88,25703.19,12955.81,42083.55,40486.96,30354.93
1133020.217,-1958.89,25717.74,13101.01,42085.32,40535.26,30377.39
1133020.219,-1961.33,25681.83,13005.4,42067.49,40504.75,30348.97
1133020.221,-1946.31,25636.82,12777.71,42049.27,40425.83,30295.57
1133020.223,-1929.57,25612.17,12608.86,42041.12,40370.8,30263.62
1133020.225,-1909.07,25582.36,12366.53,42029.96,40291.36,30225.71
1133020.227,-1909.35,25635.87,12511.64,42065.24,40347.72,30275.54
1133020.229,-1926.04,25676.68,12727.83,42078.12,40417.15,30320.12
1133020.231,-1948.21,25691.42,12889.96,42076.55,40465.98,30347.06
1133020.233,-1953.6,25714.5,13060.0,42088.08,40525.25,30381.06
1133020.235,-1953.7,25699.62,13068.73,42077.98,40531.5,30376.44
1133020.237,-1949.31,25645.21,12844.95,42046.36,40447.43,30316.17
1133020.239,-1938.63,25614.65,12672.14,42035.73,40385.11,30271.06
1133020.241,-1920.32,25574.5,12412.98,42019.94,40299.66,30223.66
1133020.243,-1912.21,25601.53,12419.89,42039.49,40307.86,30242.02
1133020.245,-1916.65,25650.79,12638.14,42060.09,40377.0,30287.36
1133020.247,-1932.48,25685.08,12832.5,42075.02,40440.14,30328.94
1133020.249,-1952.12,25709.06,13007.45,42083.65,40502.93,30366.0
1133020.251,-1948.55,25717.6,13115.6,42088.56,40548.09,30383.3
1133020.253,-1932.24,25675.01,12939.5,42068.49,40486.91,30342.58
1133020.255,-1930.28,25641.02,12750.91,42052.23,40419.34,30293.99
1133020.257,-1924.13,25588.13,12506.39,42023.57,40328.79,30231.15
1133020.259,-1896.43,25589.76,12377.69,42036.11,40297.89,30229.14
1133020.261,-1906.92,25652.55,12578.77,42070.11,40373.52,30286.22
1133020.263,-1930.14,25691.89,12786.68,42084.27,40440.09,30329.61
1133020.265,-1928.19,25715.26,12948.85,42093.04,40493.06,30363.94
1133020.267,-1948.02,25729.85,13121.75,42093.47,40550.14,30393.51
1133020.269,-1943.06,25691.18,13006.97,42071.01,40511.42,30361.13
1133020.271,-1934.72,25641.06,12793.11,42044.93,40433.79,30299.67
1133020.273,-1922.7,25604.16,12594.18,42029.62,40363.7,30252.03
1133020.275,-1903.34,25579.6,12375.5,42030.86,40297.08,30225.71
1133020.277,-1906.97,25627.57,12499.81,42061.67,40345.44,30269.05
1133020.279,-1927.19,25666.86,12721.21,42071.54,40414.39,30309.68
1133020.281,-1937.68,25689.89,12876.7,42079.45,40466.84,30344.54
1133020.283,-1958.23,25720.98,13073.35,42092.04,40535.74,30389.07
1133020.285,-1958.56,25701.86,13066.39,42077.93,40534.17,30378.92
1133020.287,-1943.59,25650.17,12853.86,42053.8,40457.68,30321.65
1133020.289,-1923.75,25618.37,12670.18,42042.4,40395.17,30280.26
1133020.291,-1894.57,25589.71,12434.29,42037.92,40325.93,30246.64
1133020.293,-1903.63,25601.29,12417.13,42048.17,40321.02,30255.46
1133020.295,-1916.98,25657.85,12658.31,42075.26,40401.03,30308.87
1133020.297,-1926.42,25684.55,12832.79,42082.65,40456.2,30343.73
1133020.299,-1949.45,25702.91,12998.15,42087.08,40508.99,30371.15
1133020.301,-1963.09,25705.96,13105.92,42085.08,40547.42,30390.08
1133020.303,-1967.72,25652.79,12922.19,42050.51,40476.76,30337.24
1133020.305,-1956.03,25625.8,12733.17,42042.64,40416.39,30298.0
1133020.307,-1932.48,25594.52,12509.49,42030.2,40340.09,30253.6
1133020.309,-1915.12,25578.03,12363.15,42029.39,40294.7,30235.53
1133020.311,-1920.84,25637.06,12565.9,42061.86,40367.8,30288.51
1133020.313,-1929.86,25682.88,12782.29,42084.94,40442.23,30337.48
1133020.315,-1964.14,25681.88,12923.53,42071.3,40473.61,30343.49
1133020.317,-1973.82,25700.1,13101.53,42073.45,40535.03,30375.29
1133020.319,-1976.39,25660.99,12989.67,42051.61,40496.31,30343.49
1133020.321,-1951.12,25630.14,12792.73,42045.36,40438.04,30303.77
1133020.323,-1928.19,25601.39,12594.13,42037.44,40373.04,30261.23
1133020.325,-1908.3,25568.11,12375.07,42023.62,40298.47,30224.76
1133020.327,-1904.34,25611.4,12476.54,42051.32,40336.42,30262.19
1133020.329,-1921.99,25656.89,12705.38,42068.25,40411.38,30306.77
1133020.331,-1933.67,25679.78,12863.4,42068.92,40455.97,30332.14
1133020.333,-1954.41,25703.58,13065.39,42076.21,40525.01,30372.1
1133020.335,-1953.98,25688.89,13060.76,42071.01,40531.26,30369.76
1133020.337,-1943.16,25641.59,12858.54,42045.79,40460.31,30320.31
1133020.339,-1934.15,25606.44,12656.64,42030.43,40383.34,30268.05
1133020.341,-1920.18,25575.26,12436.2,42022.04,40314.01,30230.0
1133020.343,-1913.6,25596.43,12405.92,42042.21,40312.68,30242.64
1133020.345,-1925.56,25657.8,12658.65,42075.5,40402.37,30305.53
1133020.347,-1940.16,25678.3,12825.87,42075.73,40449.34,30332.38
1133020.349,-1961.14,25702.1,13011.89,42081.84,40510.37,30365.8
1133020.351,-1961.76,25699.52,13095.67,42075.11,40539.41,30372.96
1133020.353,-1944.11,25653.7,12932.21,42051.46,40483.24,30333.28
1133020.355,-1932.81,25611.79,12715.77,42032.53,40403.99,30278.16
1133020.357,-1912.93,25588.85,12529.66,42028.43,40348.73,30245.83
1133020.359,-1898.62,25577.74,12362.91,42028.24,40297.42,30227.71
1133020.361,-1913.5,25633.53,12575.58,42059.57,40373.47,30283.65
1133020.363,-1933.19,25669.24,12771.51,42073.35,40432.31,30322.84
1133020.365,-1959.47,25683.93,12938.55,42072.68,40482.43,30350.97
1133020.367,-1975.25,25695.47,13085.99,42071.3,40529.88,30373.24
1133020.369,-1967.62,25660.47,12998.44,42054.85,40500.98,30346.83
1133020.371,-1945.02,25614.79,12771.99,42035.06,40418.58,30289.84
1133020.373,-1931.38,25591.71,12610.1,42031.2,40368.7,30260.09
1133020.375,-1917.46,25559.29,12359.1,42017.13,40287.12,30221.85
1133020.377,-1924.8,25614.5,12488.75,42052.08,40340.19,30269.1
1133020.379,-1937.68,25653.08,12705.14,42062.91,40405.09,30304.58
1133020.381,-1949.12,25666.86,12866.59,42059.05,40451.34,30328.85
1133020.383,-1953.41,25691.42,13036.4,42072.25,40513.95,30365.09
1133020.385,-1959.9,25674.63,13059.28,42063.05,40522.77,30363.94
1133020.387,-1959.23,25622.56,12842.08,42035.06,40442.85,30307.92
1133020.389,-1951.89,25601.77,12674.14,42031.1,40385.11,30267.62
1133020.391,-1919.08,25564.01,12421.18,42019.56,40301.04,30219.37
1133020.393,-1914.07,25574.69,12396.77,42026.72,40294.84,30229.29
1133020.395,-1920.46,25627.52,12619.69,42053.28,40373.14,30283.45
1133020.397,-1945.59,25655.27,12811.19,42059.33,40431.79,30319.5
1133020.399,-1971.1,25680.07,12981.75,42068.3,40492.4,30354.69
1133020.401,-1969.67,25698.76,13110.69,42084.37,40549.52,30390.55
1133020.403,-1961.47,25646.36,12926.77,42054.66,40483.67,30338.62
1133020.405,-1947.55,25609.93,12735.46,42040.78,40417.01,30291.37
1133020.407,-1928.71,25569.25,12509.3,42027.29,40340.38,30248.07
1133020.409,-1905.87,25569.25,12362.91,42036.16,40301.47,30239.06
1133020.411,-1926.52,25609.45,12542.01,42052.7,40360.36,30274.54
1133020.413,-1935.2,25647.21,12754.39,42066.77,40429.55,30316.88
1133020.415,-1946.26,25669.01,12913.42,42071.44,40477.42,30347.02
1133020.417,-1959.99,25692.61,13095.76,42084.75,40543.37,30386.74
1133020.419,-1967.24,25643.21,12984.75,42054.37,40499.74,30346.21
1133020.421,-1965.71,25598.0,12773.42,42032.68,40424.49,30290.51
1133020.423,-1944.97,25571.49,12585.45,42024.47,40361.98,30249.69
1133020.425,-1919.32,25541.17,12354.42,42013.55,40284.54,30212.88
1133020.427,-1924.56,25583.6,12459.9,42037.44,40323.26,30245.98
1133020.429,-1941.92,25637.3,12699.08,42063.53,40405.85,30300.53
1133020.431,-1955.75,25659.33,12855.91,42064.53,40450.2,30325.94
1133020.433,-1966.29,25692.61,13051.23,42080.69,40523.06,30368.86
1133020.435,-1968.48,25677.49,13064.91,42073.68,40535.07,30372.43
1133020.437,-1963.19,25619.56,12850.43,42044.36,40458.3,30313.92
1133020.439,-1943.87,25588.32,12661.98,42031.72,40390.69,30265.86
1133020.441,-1927.66,25553.13,12421.66,42014.79,40308.19,30219.7
1133020.443,-1928.66,25566.29,12385.89,42024.81,40295.27,30222.66
1133020.445,-1926.18,25631.86,12634.04,42058.9,40384.39,30285.41
1133020.447,-1932.96,25664.24,12818.05,42070.78,40447.76,30322.6
1133020.449,-1958.23,25680.4,12973.45,42070.87,40493.87,30348.26
1133020.451,-1971.1,25683.69,13091.99,42067.72,40534.93,30367.76
1133020.453,-1959.85,25640.44,12921.95,42045.12,40474.61,30324.65
1133020.455,-1959.42,25597.43,12719.11,42021.57,40395.31,30264.81
1133020.457,-1941.35,25564.82,12504.44,42003.92,40319.78,30215.31
1133020.459,-1916.12,25550.89,12351.94,42002.21,40268.47,30195.53
1133020.461,-1925.85,25600.48,12535.48,42030.63,40332.99,30244.35
1133020.463,-1943.64,25632.77,12735.8,42043.79,40400.94,30284.22
1133020.465,-1941.01,25672.58,12907.13,42068.63,40468.41,30330.66
1133020.467,-1960.13,25699.81,13100.29,42077.74,40541.08,30373.91
1133020.469,-1970.29,25658.61,12993.53,42048.36,40497.83,30337.62
1133020.471,-1956.89,25613.22,12784.34,42026.29,40422.59,30283.07
1133020.473,-1934.15,25585.56,12591.32,42020.52,40361.22,30244.78
1133020.475,-1916.22,25555.33,12370.49,42011.5,40290.79,30211.6
1133020.477,-1911.97,25598.29,12460.14,42038.73,40324.26,30243.59
1133020.479,-1923.23,25650.89,12697.98,42061.67,40401.37,30293.04
1133020.481,-1932.0,25680.07,12864.16,42074.26,40455.49,30325.08
1133020.483,-1959.04,25700.0,13062.53,42076.5,40521.29,30362.51
1133020.485,-1981.26,25674.92,13055.18,42056.99,40514.19,30349.21
1133020.487,-1971.1,25640.44,12868.12,42045.88,40459.54,30315.21
1133020.489,-1955.7,25603.92,12665.89,42029.77,40390.54,30267.43
1133020.491,-1929.19,25566.01,12440.97,42015.41,40315.68,30227.52
1133020.493,-1911.35,25577.21,12386.85,42025.62,40298.13,30230.67
1133020.495,-1927.81,25630.86,12625.41,42047.41,40374.86,30285.17
1133020.497,-1948.26,25658.66,12794.93,42056.37,40430.69,30318.88
1133020.499,-1956.42,25684.79,12981.56,42069.73,40499.02,30358.94
1133020.501,-1961.52,25691.32,13086.08,42072.11,40537.74,30378.68
1133020.503,-1951.65,25644.21,12929.54,42045.93,40484.05,30335.38
1133020.505,-1927.9,25612.12,12717.49,42032.29,40412.48,30284.17
1133020.507,-1910.5,25586.99,12531.14,42024.09,40350.87,30250.46
1133020.509,-1901.44,25558.95,12339.97,42014.17,40282.68,30219.22
1133020.511,-1917.46,25617.7,12544.2,42047.6,40359.12,30275.83
1133020.513,-1937.58,25656.89,12745.0,42063.05,40421.78,30315.12
1133020.515,-1955.6,25680.59,12915.47,42067.91,40474.71,30348.21
1133020.517,-1968.34,25695.42,13073.73,42074.88,40533.6,30380.92
1133020.519,-1964.86,25661.28,12999.73,42057.66,40510.23,30356.79
1133020.521,-1943.68,25621.89,12778.28,42041.12,40436.8,30306.39
1133020.523,-1943.16,25585.32,12601.04,42018.61,40364.89,30253.03
1133020.525,-1930.05,25549.61,12346.6,42004.02,40281.06,30206.49
1133020.527,-1921.18,25601.44,12463.43,42040.97,40330.22,30250.98
1133020.529,-1931.24,25647.26,12690.5,42065.1,40407.23,30299.62
1133020.531,-1952.98,25676.02,12867.26,42077.36,40465.12,30338.43
1133020.533,-1963.62,25700.05,13033.68,42087.32,40526.73,30374.96
1133020.535,-1975.16,25681.4,13057.71,42068.68,40528.21,30366.23
1133020.537,-1964.81,25622.28,12836.74,42033.34,40442.76,30304.24
1133020.539,-1941.3,25597.86,12666.89,42030.96,40388.68,30272.87
1133020.541,-1920.65,25556.85,12411.79,42012.79,40301.85,30224.76
1133020.543,-1920.41,25571.06,12375.93,42026.48,40291.7,30232.15
1133020.5449,-1929.86,25630.67,12599.9,42056.61,40370.85,30287.7
1133020.5469,-1934.58,25670.34,12801.65,42076.64,40442.38,30334.71
1133020.5489,-1945.69,25698.57,12977.36,42087.75,40506.65,30373.77
1133020.5509,-1957.37,25709.73,13104.11,42092.28,40553.62,30397.32
1133020.5529,-1945.92,25660.14,12937.12,42070.2,40495.59,30354.46
1133020.5549,-1938.44,25619.32,12739.47,42050.27,40422.21,30300.72
1133020.5569,-1922.94,25584.18,12518.65,42030.58,40339.38,30247.83
1133020.5589,-1903.72,25569.97,12350.51,42027.14,40283.78,30225.19
1133020.5609,-1908.54,25627.76,12539.53,42067.1,40361.03,30283.22
1133020.5629,-1924.8,25671.82,12757.45,42089.51,40436.32,30329.42
1133020.5649,-1935.77,25700.52,12922.0,42100.29,40492.54,30365.38
1133020.5669,-1968.15,25712.87,13100.29,42099.43,40548.62,30391.36
1133020.5689,-1971.58,25671.44,13011.5,42074.11,40514.52,30361.47
1133020.5709,-1963.52,25625.99,12794.11,42047.84,40434.37,30306.06
1133020.5729,-1950.12,25589.14,12597.61,42031.2,40362.32,30256.94
1133020.5749,-1928.04,25550.89,12352.99,42014.17,40278.15,30214.5
1133020.5769,-1916.84,25596.57,12449.08,42048.89,40319.26,30253.56
1133020.5789,-1938.39,25644.45,12682.96,42071.2,40401.37,30304.24
1133020.5809,-1950.03,25673.3,12848.9,42081.07,40457.06,30338.62
1133020.5829,-1963.47,25696.71,13031.39,42087.89,40517.86,30375.53
1133020.5849,-1962.14,25682.74,13060.91,42077.45,40525.73,30373.62
1133020.5869,-1952.22,25632.53,12854.72,42054.13,40451.91,30317.98
1133020.5889,-1938.68,25599.01,12665.94,42038.49,40383.82,30272.44
1133020.5909,-1917.31,25564.82,12425.81,42027.38,40305.38,30231.96
1133020.5929,-1902.91,25588.71,12386.04,42046.36,40301.66,30248.31
1133020.5949,-1915.17,25645.21,12619.78,42072.06,40379.82,30301.24
1133020.5969,-1926.47,25680.59,12809.47,42085.13,40444.33,30342.73
1133020.5989,-1947.21,25700.29,12968.02,42091.33,40495.35,30372.77
1133020.6009,-1960.99,25705.63,13101.25,42089.8,40541.89,30392.13
1133020.6029,-1955.46,25657.61,12932.35,42059.81,40479.57,30344.3
1133020.6049,-1934.29,25631.48,12743.67,42050.51,40419.06,30300.38
1133020.6069,-1926.37,25580.74,12516.17,42027.29,40332.7,30242.02
1133020.6089,-1909.07,25562.19,12347.94,42026.62,40280.49,30223.75
1133020.6109,-1913.74,25622.32,12533.05,42059.28,40345.96,30278.5
1133020.6129,-1927.85,25665.72,12747.34,42076.5,40416.77,30324.27
1133020.6149,-1944.16,25687.51,12903.02,42082.36,40466.5,30351.64
1133020.6169,-1964.9,25714.83,13098.19,42092.23,40535.74,30391.84
1133020.6189,-1958.89,25679.54,13011.03,42069.73,40501.41,30362.32
1133020.6209,-1939.01,25638.15,12807.75,42053.18,40433.6,30316.83
1133020.6229,-1924.47,25615.31,12616.3,42049.79,40373.85,30277.92
1133020.6249,-1920.94,25573.54,12386.37,42029.86,40295.08,30231.77
1133020.6269,-1918.84,25606.78,12453.7,42051.89,40321.07,30257.9
1133020.6289,-1932.72,25656.04,12688.64,42071.82,40399.41,30306.96
1133020.6309,-1950.12,25679.26,12846.61,42077.5,40446.48,30329.52
1133020.6329,-1960.13,25707.58,13051.46,42088.9,40518.72,30373.58
1133020.6349,-1960.09,25686.65,13061.24,42070.92,40518.62,30365.66
1133020.6369,-1947.12,25635.39,12863.3,42042.74,40444.76,30313.54
1133020.6389,-1924.94,25610.78,12667.8,42037.16,40377.34,30268.34
1133020.6409,-1913.74,25580.74,12454.85,42026.67,40311.58,30231.77
1133020.6429,-1906.59,25587.66,12382.08,42036.92,40290.22,30231.96
1133020.6449,-1911.26,25645.5,12623.98,42066.58,40373.23,30289.56
1133020.6469,-1922.18,25671.77,12794.45,42070.2,40421.92,30316.02
1133020.6489,-1936.96,25699.67,12984.71,42084.6,40492.06,30357.94
1133020.6509,-1952.51,25709.63,13101.39,42088.56,40536.84,30376.82
1133020.6529,-1947.36,25663.67,12952.85,42058.9,40481.33,30332.47
1133020.6549,-1934.43,25617.79,12730.55,42034.68,40397.7,30275.11
1133020.6569,-1919.51,25590.61,12546.11,42028.53,40339.05,30241.06
1133020.6589,-1906.44,25562.67,12342.36,42017.75,40268.14,30204.01
1133020.6609,-1912.55,25626.23,12541.96,42053.13,40344.29,30262.33
1133020.6629,-1945.31,25650.46,12730.98,42056.04,40397.93,30293.8
1133020.6649,-1963.19,25674.63,12904.69,42066.01,40455.58,30330.38
1133020.6669,-1973.44,25697.71,13069.87,42078.17,40518.0,30370.29
1133020.6689,-1973.2,25666.19,13008.12,42056.57,40494.11,30349.54
1133020.6709,-1950.93,25619.75,12782.86,42035.25,40412.91,30293.85
1133020.6729,-1923.85,25596.43,12619.21,42030.2,40363.79,30257.9
1133020.6749,-1898.38,25554.37,12364.63,42017.04,40281.3,30212.12
1133020.6769,-1918.79,25585.56,12446.02,42032.01,40309.0,30237.96
1133020.6789,-1933.48,25639.06,12676.29,42054.47,40382.82,30288.8
1133020.6809,-1942.06,25671.44,12858.25,42066.82,40440.23,30329.76
1133020.6829,-1960.37,25689.65,13023.76,42070.78,40496.02,30360.89
1133020.6849,-1967.24,25681.98,13068.96,42061.95,40512.28,30362.71
1133020.6869,-1951.03,25629.43,12860.35,42032.39,40437.37,30309.73
1133020.6889,-1935.01,25602.87,12686.11,42025.38,40382.1,30274.2
1133020.6909,-1913.12,25561.38,12432.1,42008.4,40292.08,30222.9
1133020.6929,-1903.44,25572.21,12374.55,42020.04,40277.34,30223.9
1133020.6949,-1912.31,25637.3,12604.67,42057.47,40365.27,30284.84
1133020.6969,-1928.33,25670.63,12803.84,42069.49,40428.5,30324.37
1133020.6989,-1944.49,25685.84,12968.97,42072.11,40482.24,30354.55
1133020.7009,-1959.42,25697.62,13101.96,42076.02,40530.64,30379.11
1133020.7029,-1954.89,25650.55,12945.56,42053.32,40476.23,30335.38
1133020.7049,-1947.02,25614.31,12749.96,42037.97,40406.61,30285.41
1133020.7069,-1932.81,25584.41,12535.05,42023.47,40333.09,30237.34
1133020.7089,-1917.41,25572.73,12357.19,42023.85,40275.53,30215.55
1133020.7109,-1933.29,25621.94,12533.95,42053.85,40338.66,30262.86
1133020.7129,-1938.87,25664.0,12752.25,42069.96,40411.19,30307.44
1133020.7149,-1931.52,25687.46,12917.0,42079.02,40464.84,30344.54
1133020.7169,-1945.07,25713.26,13105.2,42090.95,40533.02,30386.12
1133020.7189,-1949.74,25674.87,13024.86,42062.86,40499.5,30351.55
1133020.7209,-1943.3,25628.0,12808.61,42040.69,40423.59,30297.47
1133020.7229,-1918.79,25602.58,12623.69,42033.34,40364.37,30257.51
1133020.7249,-1900.86,25562.67,12378.6,42019.13,40280.78,30216.51
1133020.7269,-1907.4,25597.24,12450.74,42044.64,40311.63,30246.93
1133020.7289,-1918.51,25651.12,12690.88,42072.02,40396.27,30304.39
1133020.7309,-1927.38,25676.25,12855.87,42080.17,40450.63,30338.91
1133020.7329,-1941.3,25705.15,13042.98,42094.14,40516.81,30381.87
1133020.7349,-1952.6,25689.18,13082.32,42081.27,40529.78,30379.11
1133020.7369,-1948.69,25633.62,12872.75,42048.41,40448.96,30319.93
1133020.7389,-1937.44,25597.0,12680.44,42029.72,40379.82,30271.68
1133020.7409,-1917.74,25555.9,12440.87,42014.51,40299.99,30227.38
1133020.7429,-1907.3,25566.34,12377.93,42025.95,40285.21,30230.86
1133020.7449,-1928.9,25622.66,12604.43,42052.94,40361.84,30279.4
1133020.7469,-1945.92,25651.51,12790.63,42055.04,40416.34,30313.54
1133020.7489,-1957.37,25678.49,12955.24,42071.3,40475.04,30354.36
1133020.7509,-1967.95,25693.13,13104.25,42076.31,40530.5,30383.73
1133020.7529,-1958.32,25642.92,12940.5,42045.5,40468.27,30334.62
1133020.7549,-1937.68,25602.39,12741.23,42029.77,40402.56,30284.79
1133020.7569,-1910.4,25579.36,12539.87,42029.15,40343.58,30253.18
1133020.7589,-1895.62,25563.72,12365.72,42030.24,40289.79,30233.48
1133020.7609,-1917.6,25599.72,12519.07,42050.18,40338.9,30264.38
1133020.7629,-1936.01,25637.06,12729.07,42061.05,40406.37,30303.2
1133020.7649,-1939.15,25669.15,12894.78,42075.59,40463.98,30341.39
1133020.7669,-1959.75,25692.66,13090.14,42083.89,40534.17,30380.2
1133020.7689,-1961.99,25659.42,13013.03,42064.0,40504.46,30354.55
1133020.7709,-1943.21,25621.37,12814.95,42048.51,40439.23,30309.54
1133020.7729,-1924.23,25593.95,12619.54,42041.12,40374.19,30267.48
1133020.7749,-1911.59,25556.57,12391.43,42025.81,40296.46,30226.0
1133020.7769,-1911.21,25591.04,12444.21,42047.79,40317.35,30253.51
1133020.7789,-1934.91,25635.77,12676.38,42066.15,40390.54,30299.43
1133020.7809,-1948.79,25656.7,12834.36,42067.01,40433.32,30324.84
1133020.7829,-1964.04,25683.55,13038.06,42073.45,40502.51,30365.42
1133020.7849,-1960.61,25677.64,13074.83,42072.44,40522.82,30372.1
1133020.7869,-1951.55,25629.95,12884.76,42052.18,40457.68,30326.37
1133020.7889,-1945.07,25595.1,12677.48,42040.31,40388.16,30276.68
1133020.7909,-1939.58,25553.9,12453.75,42015.94,40305.91,30225.19
1133020.7929,-1914.12,25568.06,12373.35,42033.34,40288.55,30229.24
1133020.7949,-1919.84,25631.48,12618.5,42069.11,40379.34,30293.04
1133020.7969,-1926.42,25655.94,12795.59,42074.59,40433.32,30320.55
1133020.7989,-1932.67,25682.98,12981.56,42084.56,40497.69,30358.41
1133020.8009,-1942.68,25690.51,13102.39,42086.03,40541.7,30379.87
1133020.8029,-1943.68,25645.21,12957.48,42057.71,40489.39,30338.58
1133020.8049,-1933.38,25602.15,12733.37,42040.78,40407.42,30282.88
1133020.8069,-1919.6,25578.03,12558.7,42037.16,40354.4,30253.46
1133020.8089,-1906.68,25553.04,12348.7,42028.1,40288.64,30223.09
1133020.8109,-1922.37,25606.49,12532.38,42055.99,40352.02,30270.72
1133020.8129,-1938.3,25648.45,12743.19,42074.69,40420.2,30314.74
1133020.8149,-1951.89,25676.63,12917.0,42080.6,40475.28,30345.25
1133020.8169,-1960.71,25690.37,13075.97,42083.17,40528.4,30370.48
1133020.8189,-1963.57,25654.94,13022.33,42057.71,40501.07,30346.83
1133020.8209,-1954.17,25608.45,12797.55,42038.59,40423.16,30296.57
1133020.8229,-1937.77,25587.42,12634.76,42035.87,40371.71,30264.48
1133020.8249,-1919.46,25537.88,12368.06,42011.79,40278.34,30211.55
1133020.8269,-1917.03,25576.79,12442.11,42040.78,40311.29,30244.93
1133020.8289,-1935.43,25629.57,12673.52,42063.81,40387.54,30293.23
1133020.8309,-1952.12,25661.33,12855.53,42075.5,40450.48,30333.71
1133020.8329,-1968.48,25681.55,13021.85,42080.22,40508.7,30366.14
1133020.8349,-1973.96,25675.25,13079.36,42073.54,40528.4,30370.48
1133020.8369,-1952.27,25622.56,12875.84,42047.55,40456.73,30318.5
1133020.8389,-1942.01,25588.28,12694.93,42035.39,40393.31,30273.49
1133020.8409,-1939.58,25540.74,12440.78,42011.27,40301.71,30215.65
1133020.8429,-1923.42,25548.84,12365.91,42017.18,40276.2,30213.22
1133020.8449,-1927.85,25604.44,12584.5,42042.55,40346.58,30265.86
1133020.8469,-1932.1,25651.08,12792.45,42067.91,40420.68,30315.5
1133020.8489,-1940.58,25675.11,12966.97,42079.07,40480.43,30352.21
1133020.8509,-1955.84,25680.78,13103.34,42079.64,40527.97,30374.67
1133020.8529,-1954.94,25630.95,12948.09,42048.32,40470.99,30328.52
1133020.8549,-1951.84,25585.75,12740.33,42021.71,40393.79,30270.34
1133020.8569,-1941.97,25550.23,12527.28,42006.64,40318.64,30223.85
1133020.8589,-1921.7,25536.21,12337.78,42007.17,40260.75,30203.82
1133020.8609,-1922.32,25594.14,12511.21,42040.26,40329.13,30257.66
1133020.8629,-1942.11,25633.24,12729.12,42055.95,40396.93,30298.81
1133020.8649,-1960.33,25650.17,12881.9,42057.95,40441.9,30323.94
1133020.8669,-1973.72,25679.69,13073.3,42070.25,40511.9,30367.52
1133020.8689,-1969.29,25654.37,13021.28,42056.14,40498.21,30352.02
1133020.8709,-1958.51,25608.64,12809.47,42037.02,40424.78,30298.57
1133020.8729,-1953.55,25566.72,12614.92,42017.89,40354.83,30246.12
1133020.8749,-1928.62,25535.59,12375.07,42008.21,40278.44,30206.49
1133020.8769,-1934.39,25566.49,12427.71,42025.62,40298.04,30228.95
1133020.8789,-1952.6,25615.27,12659.79,42044.5,40371.57,30274.59
1133020.8809,-1951.65,25644.35,12830.78,42057.14,40429.88,30312.21
1133020.8829,-1961.09,25668.53,13012.7,42070.68,40491.4,30350.35
1133020.8849,-1964.9,25662.23,13072.44,42065.91,40518.0,30361.47
1133020.8869,-1963.0,25609.07,12865.35,42036.49,40441.57,30307.2
1133020.8889,-1943.92,25583.79,12686.54,42032.39,40386.87,30270.48
1133020.8909,-1922.23,25544.6,12446.12,42014.51,40306.48,30224.04
1133020.8929,-1917.55,25550.8,12368.73,42023.0,40284.78,30223.52
1133020.8949,-1926.28,25610.55,12594.99,42056.14,40365.51,30280.83
1133020.8969,-1936.48,25639.63,12784.67,42063.38,40423.3,30316.26
1133020.8989,-1951.27,25661.66,12938.12,42068.2,40471.32,30346.16
1133020.9009,-1975.11,25673.96,13093.76,42072.49,40529.3,30376.1
1133020.9029,-1974.68,25629.33,12943.56,42046.5,40476.66,30330.85
1133020.9049,-1955.37,25590.14,12743.19,42027.24,40406.66,30282.55
1133020.9069,-1928.04,25557.9,12535.67,42016.56,40332.32,30237.11
1133020.9089,-1911.59,25531.2,12347.41,42004.92,40265.18,30205.49
1133020.9109,-1911.74,25587.37,12506.68,42038.4,40325.84,30251.55
1133020.9129,-1925.9,25639.01,12731.17,42062.48,40406.71,30301.43
1133020.9149,-1952.6,25648.64,12874.37,42059.09,40445.05,30318.93
1133020.9169,-1968.34,25676.02,13078.02,42074.59,40518.81,30364.71
1133020.9189,-1970.48,25647.36,13016.08,42059.57,40499.22,30349.4
1133020.9209,-1958.7,25603.58,12816.14,42037.44,40428.12,30299.14
1133020.9229,-1943.16,25566.06,12613.3,42019.56,40354.16,30246.21
1133020.9249,-1927.66,25527.86,12386.37,42004.49,40279.44,30210.12
1133020.9269,-1930.71,25558.62,12421.51,42030.05,40298.66,30234.77
1133020.9288,-1944.69,25614.36,12665.56,42056.76,40384.25,30289.13
1133020.9308,-1947.69,25641.97,12828.64,42064.62,40435.61,30318.84
1133020.9328,-1964.14,25659.71,13020.47,42062.24,40493.78,30351.55
1133020.9348,-1971.91,25643.35,13058.43,42048.51,40502.12,30349.4
1133020.9368,-1966.0,25596.67,12869.07,42025.0,40437.89,30301.67
1133020.9388,-1950.55,25565.53,12665.89,42014.99,40368.75,30254.46
1133020.9408,-1935.24,25534.68,12458.09,42004.54,40302.23,30216.79
1133020.9428,-1923.13,25530.96,12346.7,42006.31,40261.32,30206.4
1133020.9448,-1926.14,25602.39,12592.51,42049.6,40356.78,30275.01
1133020.9468,-1946.54,25635.63,12774.28,42059.52,40417.2,30310.06
1133020.9488,-1970.67,25649.26,12944.6,42060.14,40470.18,30336.19
1133020.9508,-1984.07,25652.08,13069.06,42057.38,40511.18,30354.12
1133020.9528,-1964.9,25620.37,12948.71,42043.36,40475.75,30329.99
1133020.9548,-1957.51,25574.93,12723.26,42018.13,40393.02,30272.68
1133020.9568,-1946.31,25550.18,12550.16,42011.79,40334.75,30237.68
1133020.9588,-1939.58,25515.13,12326.86,41994.96,40253.79,30193.71
1133020.9608,-1942.35,25568.44,12496.85,42024.67,40316.49,30240.01
1133020.9628,-1941.44,25611.26,12706.19,42045.17,40388.06,30282.26
1133020.9648,-1954.08,25635.05,12877.85,42053.37,40445.71,30319.98
1133020.9668,-1969.96,25654.46,13043.55,42059.86,40504.79,30355.89
1133020.9688,-1983.12,25627.95,13010.36,42045.5,40493.3,30341.1
1133020.9708,-1973.82,25577.64,12788.68,42018.8,40410.57,30281.36
1133020.9728,-1951.6,25554.33,12622.64,42011.89,40355.11,30243.02
1133020.9748,-1923.08,25514.99,12362.91,41997.2,40268.28,30201.63
1133020.9768,-1914.22,25558.28,12426.52,42031.29,40302.33,30241.78
1133020.9788,-1936.29,25607.06,12653.73,42053.56,40377.34,30292.51
1133020.9808,-1956.32,25631.76,12827.25,42052.42,40427.02,30317.36
1133020.9828,-1963.71,25657.32,12996.96,42064.15,40488.15,30352.31
1133020.9848,-1974.82,25652.79,13067.49,42060.19,40518.05,30365.66
1133020.9868,-1974.63,25596.24,12866.93,42028.53,40442.42,30309.25
1133020.9888,-1957.46,25569.82,12687.3,42022.47,40382.06,30268.34
1133020.9908,-1940.39,25520.28,12440.35,41995.43,40291.98,30211.12
1133020.9928,-1932.48,25528.0,12353.95,42008.74,40267.66,30208.88
1133020.9948,-1940.54,25589.85,12575.44,42044.6,40349.15,30265.14
1133020.9968,-1950.07,25623.13,12773.09,42054.71,40411.76,30303.77
1133020.9988,-1958.18,25641.59,12935.21,42056.47,40466.03,30333.71
1133021.0008,-1970.82,25654.41,13081.12,42059.43,40519.1,30359.56
1133021.0028,-1964.09,25613.69,12943.36,42035.11,40467.79,30320.22
1133021.0048,-1945.31,25584.61,12752.01,42028.0,40407.33,30278.83
1133021.0068,-1938.49,25538.64,12538.96,42002.11,40326.55,30221.9
1133021.0088,-1928.85,25511.41,12328.67,41994.15,40255.79,30189.33
1133021.0108,-1928.62,25574.35,12494.52,42033.44,40325.55,30247.5
1133021.0128,-1946.54,25618.94,12718.25,42055.75,40400.51,30297.0
1133021.0148,-1960.09,25636.34,12876.8,42058.62,40447.29,30323.65
1133021.0168,-1984.64,25660.37,13059.76,42062.0,40509.85,30361.08
1133021.0188,-1996.18,25634.01,13015.18,42043.4,40495.59,30345.73
1133021.0208,-1965.95,25593.62,12809.33,42027.05,40424.97,30297.9
1133021.0228,-1936.44,25561.05,12626.41,42012.65,40361.7,30250.46
1133021.0248,-1919.08,25520.28,12377.36,41997.72,40276.06,30206.49
1133021.0268,-1913.79,25553.61,12417.22,42021.42,40296.61,30233.86
1133021.0288,-1923.18,25607.92,12651.78,42049.46,40379.62,30286.74
1133021.0308,-1945.21,25628.28,12819.91,42050.75,40423.11,30309.97
1133021.0328,-1967.81,25653.41,12997.77,42060.05,40483.05,30346.87
1133021.0348,-1978.49,25651.22,13069.49,42052.13,40507.89,30354.69
1133021.0368,-1969.48,25606.3,12875.51,42028.1,40440.85,30307.3
1133021.0388,-1964.86,25571.16,12687.4,42014.32,40373.66,30260.76
1133021.0408,-1943.54,25534.49,12457.99,41999.77,40294.65,30212.6
1133021.0428,-1926.33,25533.97,12362.1,42006.83,40265.99,30207.83
1133021.0448,-1920.37,25593.95,12579.54,42040.54,40342.81,30264.67
1133021.0468,-1932.91,25631.38,12784.77,42060.43,40416.63,30312.83
1133021.0488,-1966.19,25637.15,12919.43,42053.42,40452.25,30332.47
1133021.0508,-1991.84,25646.36,13075.5,42049.79,40502.84,30358.46
1133021.0528,-1978.49,25608.35,12937.69,42026.43,40454.2,30320.46
1133021.0548,-1949.74,25578.74,12746.53,42016.18,40390.31,30277.97
1133021.0568,-1935.01,25540.16,12535.29,42001.82,40316.97,30232.77
1133021.0588,-1922.56,25512.22,12336.06,41988.52,40250.07,30198.91
1133021.0608,-1929.28,25560.05,12475.16,42015.61,40304.14,30244.35
1133021.0628,-1948.6,25598.91,12696.7,42030.72,40376.62,30287.6
1133021.0648,-1964.24,25621.94,12850.95,42037.4,40426.35,30314.69
1133021.0668,-1974.44,25661.95,13064.43,42059.24,40511.8,30369.0
1133021.0688,-1976.3,25623.99,13007.55,42031.25,40483.67,30343.15
1133021.0708,-1967.24,25566.96,12794.83,42002.87,40402.37,30283.6
1133021.0728,-1952.7,25536.02,12599.28,41990.52,40333.51,30235.48
1133021.0748,-1928.28,25512.98,12384.89,41990.81,40273.34,30206.49
1133021.0768,-1913.88,25547.22,12410.64,42021.33,40294.13,30233.43
1133021.0788,-1934.86,25593.0,12646.68,42039.92,40371.14,30279.83
1133021.0808,-1942.54,25627.71,12813.19,42053.13,40429.41,30313.26
1133021.0828,-1979.11,25645.35,12999.97,42050.08,40486.53,30341.82
1133021.0848,-1990.51,25636.15,13056.33,42043.5,40503.36,30342.58
1133021.0868,-1980.26,25594.33,12877.37,42019.8,40440.61,30299.33
1133021.0888,-1963.09,25561.72,12667.94,42004.45,40368.51,30248.93
1133021.0908,-1952.7,25524.57,12462.43,41986.99,40294.7,30197.81
1133021.0928,-1938.53,25520.71,12339.64,41992.24,40255.22,30187.56
1133021.0948,-1942.11,25581.65,12566.23,42025.76,40338.23,30249.65
1133021.0968,-1944.73,25614.12,12750.96,42038.54,40397.27,30286.94
1133021.0988,-1948.74,25643.02,12935.5,42050.8,40462.88,30326.08
1133021.1008,-1963.95,25655.22,13070.16,42050.61,40512.66,30347.49
1133021.1028,-1957.89,25616.6,12954.81,42030.53,40471.13,30317.64
1133021.1048,-1937.68,25574.83,12734.7,42011.79,40391.83,30267.39
1133021.1068,-1932.81,25550.27,12563.42,42002.4,40332.13,30233.2
1133021.1088,-1920.51,25519.76,12338.45,41992.34,40254.17,30198.48
1133021.1108,-1928.62,25566.25,12491.66,42018.9,40313.77,30241.64
1133021.1128,-1950.31,25594.14,12692.41,42021.61,40372.9,30270.63
1133021.1148,-1956.32,25624.23,12867.83,42034.82,40432.98,30308.68
1133021.1168,-1966.43,25646.64,13038.45,42045.17,40497.45,30343.97
1133021.1188,-1976.11,25622.9,13017.13,42030.43,40492.01,30332.76
1133021.1208,-1960.66,25574.83,12799.03,42010.12,40417.15,30277.16
1133021.1228,-1944.4,25548.32,12632.51,42000.97,40358.07,30237.11
1133021.1248,-1924.32,25511.89,12377.98,41986.85,40273.72,30191.81
1133021.1268,-1923.85,25544.46,12416.79,42015.75,40294.8,30220.94
1133021.1288,-1936.15,25596.19,12647.68,42041.69,40372.14,30271.15
1133021.1308,-1953.98,25619.51,12820.53,42044.36,40424.49,30299.86
1133021.1328,-1961.57,25642.78,12991.57,42051.51,40485.58,30334.81
1133021.1348,-1975.73,25633.96,13070.63,42041.93,40508.85,30339.24
1133021.1368,-1965.71,25586.56,12880.85,42018.56,40442.14,30292.42
1133021.1388,-1953.46,25553.32,12692.12,42000.87,40373.62,30247.41
1133021.1408,-1938.44,25513.8,12454.8,41986.33,40292.22,30201.06
1133021.1428,-1930.57,25520.9,12350.23,41996.77,40264.42,30201.34
1133021.1448,-1942.11,25574.45,12557.08,42021.23,40335.85,30249.89
1133021.1468,-1947.98,25607.83,12762.93,42040.88,40405.23,30292.99
1133021.1488,-1960.75,25625.28,12927.82,42047.41,40460.31,30323.89
1133021.1508,-1972.34,25641.97,13083.22,42052.94,40519.34,30355.89
1133021.1528,-1955.8,25614.07,12967.68,42040.83,40484.0,30331.19
1133021.1548,-1961.14,25559.95,12750.29,42007.21,40398.32,30270.01
1133021.1568,-1947.93,25529.29,12548.02,41993.38,40326.98,30225.28
1133021.1588,-1917.41,25509.27,12337.16,41993.62,40263.23,30199.91
1133021.1608,-1917.36,25557.33,12484.22,42024.05,40319.3,30244.59
1133021.1628,-1931.05,25600.87,12704.23,42041.02,40391.02,30288.51
1133021.1648,-1950.69,25613.36,12851.91,42030.24,40428.5,30306.72
1133021.1668,-1964.38,25646.21,13048.36,42047.74,40504.37,30351.79
1133021.1688,-1969.86,25625.18,13028.1,42039.21,40502.84,30340.2
1133021.1708,-1968.34,25572.35,12810.04,42009.07,40421.2,30281.31
1133021.1728,-1960.33,25541.5,12628.7,41998.73,40359.31,30237.25
1133021.1748,-1920.41,25522.33,12389.23,42002.11,40290.69,30205.68
1133021.1768,-1916.69,25543.93,12408.11,42017.89,40300.09,30225.19
1133021.1788,-1929.95,25586.37,12637.24,42037.21,40371.66,30272.3
1133021.1808,-1945.35,25614.65,12812.62,42046.27,40429.12,30305.82
1133021.1828,-1960.28,25645.31,12987.9,42060.67,40492.59,30347.64
1133021.1848,-1968.62,25648.5,13081.6,42060.52,40527.97,30362.9
1133021.1868,-1959.56,25597.48,12889.39,42033.82,40456.87,30310.83
1133021.1888,-1946.88,25563.82,12700.99,42019.52,40390.5,30263.62
1133021.1908,-1934.81,25520.76,12460.33,41998.44,40303.14,30210.93
1133021.1928,-1913.36,25522.85,12354.42,42005.88,40273.34,30210.45
1133021.1948,-1923.99,25572.26,12559.03,42028.34,40341.0,30257.23
1133021.1968,-1948.07,25601.58,12756.97,42034.68,40401.89,30293.47
1133021.1988,-1965.52,25625.61,12899.92,42044.93,40452.72,30324.37
1133021.2008,-1977.87,25652.36,13082.32,42062.38,40522.72,30365.47
1133021.2028,-1973.92,25606.54,12950.37,42033.87,40471.75,30323.56
1133021.2048,-1960.47,25563.67,12746.24,42014.41,40398.36,30272.3
1133021.2068,-1944.92,25539.16,12543.39,42006.59,40330.99,30228.9
1133021.2088,-1933.91,25515.37,12345.89,41998.11,40266.71,30199.25
1133021.2108,-1931.48,25562.67,12473.54,42026.91,40311.53,30237.77
1133021.2128,-1929.38,25607.68,12700.51,42048.03,40387.78,30290.04
1133021.2148,-1940.82,25616.46,12841.99,42044.07,40427.5,30309.78
1133021.2168,-1961.8,25638.87,13046.31,42054.85,40500.84,30351.45
1133021.2188,-1972.34,25612.41,13004.97,42032.63,40484.62,30330.71
1133021.2208,-1957.37,25571.92,12808.04,42015.03,40417.06,30284.12
1133021.2228,-1935.39,25546.84,12612.15,42008.74,40349.73,30240.49
1133021.2248,-1921.22,25513.8,12386.85,41991.91,40270.86,30197.81
1133021.2268,-1914.84,25542.45,12388.04,42014.79,40281.44,30217.22
1133021.2288,-1942.97,25593.09,12624.79,42037.44,40359.41,30265.72
1133021.2308,-1960.47,25618.13,12788.92,42041.12,40406.52,30292.85
1133021.2328,-1972.96,25645.74,12987.66,42053.75,40477.61,30338.82
1133021.2348,-1968.15,25643.16,13062.43,42050.27,40504.84,30351.64
1133021.2368,-1952.27,25601.91,12891.25,42031.67,40450.1,30310.92
1133021.2388,-1939.39,25564.39,12678.53,42014.6,40371.85,30257.13
1133021.2408,-1925.8,25532.58,12476.83,42004.97,40303.85,30220.32
1133021.2428,-1907.92,25522.57,12338.35,42006.88,40256.31,30203.25
1133021.2448,-1920.75,25577.12,12559.03,42034.06,40328.65,30255.75
1133021.2468,-1929.95,25616.6,12755.49,42051.22,40398.32,30297.33
1133021.2488,-1948.17,25643.78,12932.49,42060.09,40459.78,30332.28
1133021.2508,-1972.15,25651.84,13070.3,42061.52,40506.56,30357.08
1133021.2528,-1975.49,25612.26,12960.24,42039.88,40468.65,30322.7
1133021.2548,-1958.32,25573.83,12736.94,42022.23,40391.59,30271.34
1133021.2568,-1944.49,25548.18,12567.43,42011.89,40329.89,30237.15
1133021.2588,-1924.9,25510.46,12329.77,41993.34,40246.3,30192.57
1133021.2608,-1935.43,25556.09,12468.53,42019.04,40298.23,30230.19
1133021.2628,-1945.54,25606.35,12690.74,42048.13,40381.25,30281.17
1133021.2648,-1945.88,25643.11,12871.22,42069.25,40449.19,30328.61
1133021.2668,-1959.61,25664.95,13037.02,42079.02,40507.75,30364.85
1133021.2688,-1965.57,25641.97,13029.77,42062.0,40502.74,30352.41
1133021.2708,-1949.26,25596.72,12817.86,42038.83,40427.26,30297.24
1133021.2728,-1944.78,25567.2,12642.29,42024.52,40364.22,30256.51
1133021.2748,-1928.38,25523.62,12379.6,42001.25,40271.14,30203.44
1133021.2768,-1912.45,25552.66,12402.35,42026.81,40288.5,30226.09
1133021.2788,-1919.94,25601.58,12627.75,42047.31,40360.03,30272.39
1133021.2808,-1934.48,25629.9,12810.9,42058.28,40419.01,30310.68
1133021.2828,-1948.21,25650.55,12977.46,42061.86,40473.28,30341.77
1133021.2848,-1961.18,25649.36,13064.48,42055.28,40504.27,30355.84
1133021.2868,-1957.23,25595.05,12877.32,42025.48,40434.89,30304.58
1133021.2888,-1940.92,25572.11,12700.7,42023.0,40379.67,30270.15
1133021.2908,-1933.15,25532.39,12471.34,42007.59,40299.94,30219.18
1133021.2928,-1928.14,25524.09,12341.88,42009.31,40258.13,30204.97
1133021.2948,-1932.0,25581.41,12551.17,42040.78,40336.76,30260.28
1133021.2968,-1943.92,25620.51,12757.35,42057.57,40406.85,30305.53
1133021.2988,-1951.31,25649.36,12928.01,42068.77,40462.07,30338.82
1133021.3008,-1968.43,25662.0,13082.89,42068.01,40512.66,30364.33
1133021.3028,-1961.85,25616.55,12964.25,42041.12,40466.12,30327.37
1133021.3048,-1944.02,25576.93,12759.16,42024.33,40395.65,30276.45
1133021.3068,-1925.47,25548.56,12568.9,42015.37,40332.37,30236.68
1133021.3088,-1914.12,25519.42,12344.41,42003.92,40257.51,30201.58
1133021.3108,-1921.94,25564.63,12475.59,42026.33,40300.52,30236.39
1133021.3127,-1934.1,25607.88,12695.46,42040.4,40368.23,30276.54
1133021.3147,-1940.35,25638.15,12862.35,42052.56,40429.64,30311.06
1133021.3167,-1947.45,25678.35,13064.58,42080.98,40515.09,30366.04
1133021.3187,-1965.62,25641.54,13040.69,42052.27,40495.21,30345.49
1133021.3207,-1955.94,25588.42,12821.58,42022.57,40414.39,30286.41
1133021.3227,-1940.06,25562.91,12647.82,42018.13,40357.5,30244.5
1133021.3247,-1921.75,25525.48,12400.44,42003.78,40273.62,30198.24
1133021.3267,-1919.37,25545.41,12400.06,42020.23,40278.34,30214.74
1133021.3287,-1930.43,25599.2,12630.32,42044.84,40355.97,30268.1
1133021.3307,-1935.91,25638.15,12819.82,42061.14,40424.3,30310.4
1133021.3327,-1958.56,25661.04,12986.09,42068.63,40481.48,30341.44
1133021.3347,-1970.24,25654.46,13079.79,42058.14,40510.23,30349.02
1133021.3367,-1952.46,25601.82,12893.96,42032.06,40446.0,30299.95
1133021.3387,-1935.77,25567.44,12705.85,42016.7,40379.48,30254.18
1133021.3407,-1917.98,25534.2,12480.4,42007.36,40301.8,30214.03
1133021.3427,-1905.06,25528.72,12353.04,42008.55,40258.94,30202.44
1133021.3447,-1907.3,25589.28,12558.18,42040.54,40334.66,30258.85
1133021.3467,-1926.76,25622.28,12767.27,42046.12,40397.08,30296.62
1133021.3487,-1940.2,25638.73,12902.55,42050.18,40441.8,30321.84
1133021.3507,-1962.66,25653.32,13078.88,42053.85,40502.89,30353.93
1133021.3527,-1963.19,25610.21,12957.81,42030.63,40458.02,30316.55
1133021.3547,-1946.31,25573.69,12761.64,42014.08,40392.26,30271.87
1133021.3567,-1926.8,25544.6,12559.22,41999.01,40317.59,30223.56
1133021.3587,-1918.84,25514.65,12347.18,41987.38,40246.59,30191.71
1133021.3607,-1922.94,25559.95,12460.19,42018.23,40292.36,30232.81
1133021.3627,-1928.85,25613.5,12697.13,42049.08,40380.91,30291.13
1133021.3647,-1937.34,25635.67,12850.48,42053.9,40429.45,30323.8
1133021.3667,-1958.18,25660.18,13049.7,42059.33,40498.45,30360.75
1133021.3687,-1960.61,25639.2,13028.1,42048.84,40492.73,30349.88
1133021.3707,-1958.08,25589.33,12828.88,42027.53,40425.59,30299.76
1133021.3727,-1935.86,25558.9,12634.18,42020.56,40359.64,30257.32
1133021.3747,-1921.22,25521.81,12409.16,42003.68,40281.3,30216.98
1133021.3767,-1917.93,25535.78,12385.99,42015.46,40276.2,30226.04
1133021.3787,-1930.0,25593.43,12626.6,42038.49,40355.97,30280.83
1133021.3807,-1942.44,25618.13,12789.39,42042.78,40403.8,30309.87
1133021.3827,-1963.47,25642.16,12981.51,42052.23,40470.94,30351.59
1133021.3847,-1967.24,25643.3,13067.44,42050.08,40504.17,30364.95
1133021.3867,-1967.86,25590.57,12894.06,42016.18,40435.99,30312.54
1133021.3887,-1958.7,25548.08,12676.53,41993.19,40352.49,30254.42
1133021.3907,-1933.29,25522.38,12488.8,41991.0,40294.56,30226.14
1133021.3927,-1914.64,25512.22,12336.3,41995.24,40251.16,30210.31
1133021.3947,-1931.62,25565.58,12543.2,42023.19,40324.6,30253.32
1133021.3967,-1948.5,25598.82,12732.03,42030.77,40378.86,30279.78
1133021.3987,-1966.24,25623.99,12908.27,42037.78,40436.51,30316.26
1133021.4007,-1972.77,25644.73,13065.67,42046.03,40496.45,30350.83
1133021.4027,-1970.48,25603.92,12963.82,42023.76,40460.64,30319.65
1133021.4047,-1959.47,25554.76,12734.22,41998.25,40377.34,30261.95
1133021.4067,-1943.54,25535.54,12570.67,41996.87,40327.79,30231.96
1133021.4087,-1924.9,25500.49,12330.15,41985.95,40248.45,30191.95
1133021.4107,-1927.23,25544.98,12459.95,42015.46,40297.37,30233.48
1133021.4127,-1939.06,25590.28,12677.96,42032.53,40370.37,30277.78
1133021.4147,-1953.08,25617.65,12851.76,42041.35,40425.54,30311.45
1133021.4167,-1976.78,25632.24,13012.27,42039.69,40472.66,30335.57
1133021.4187,-1985.6,25610.4,13015.18,42024.52,40470.27,30325.23
1133021.4207,-1963.85,25568.54,12809.42,42008.12,40403.37,30277.49
1133021.4227,-1941.44,25547.94,12646.49,42005.73,40350.25,30241.83
1133021.4247,-1915.98,25511.12,12394.48,41995.96,40269.05,30199.29
1133021.4267,-1914.26,25531.58,12392.67,42017.66,40275.01,30218.08
1133021.4287,-1935.34,25578.88,12616.25,42036.35,40348.53,30264.57
1133021.4307,-1934.81,25623.61,12813.57,42057.52,40422.35,30313.4
1133021.4327,-1955.13,25637.73,12974.07,42054.71,40471.75,30339.77
1133021.4347,-1973.2,25635.58,13070.3,42049.65,40503.36,30350.64
1133021.4367,-1964.52,25589.66,12897.4,42027.62,40443.95,30306.1
1133021.4387,-1954.13,25553.37,12707.0,42015.99,40377.96,30261.66
1133021.4407,-1936.2,25517.66,12485.93,42001.4,40303.38,30217.22
1133021.4427,-1926.76,25504.4,12339.16,41998.77,40254.22,30198.77
1133021.4447,-1942.78,25555.28,12535.81,42025.38,40321.69,30248.26
1133021.4467,-1951.98,25597.53,12742.09,42041.78,40388.06,30292.09
1133021.4487,-1965.9,25621.37,12906.36,42048.84,40444.67,30325.56
1133021.4507,-1982.74,25641.3,13073.26,42053.66,40506.42,30360.75
1133021.4527,-1978.59,25601.91,12971.83,42026.38,40466.5,30326.18
1133021.4547,-1962.9,25555.33,12756.64,42001.44,40383.49,30268.63
1133021.4567,-1945.11,25525.29,12568.19,41992.86,40319.83,30225.85
1133021.4587,-1917.89,25498.49,12341.36,41991.38,40250.35,30194.52
1133021.4607,-1907.68,25555.38,12469.01,42028.86,40308.19,30243.11
1133021.4627,-1926.57,25597.67,12686.3,42040.16,40376.0,30284.84
1133021.4647,-1949.6,25613.84,12843.71,42037.06,40421.11,30308.3
1133021.4667,-1956.22,25649.17,13035.73,42054.85,40492.59,30355.27
1133021.4687,-1957.18,25633.77,13045.17,42046.12,40498.21,30350.83
1133021.4707,-1949.41,25580.12,12830.16,42016.46,40416.05,30288.18
1133021.4727,-1944.64,25545.65,12646.2,41999.54,40348.11,30243.54
1133021.4747,-1936.15,25500.92,12390.23,41978.65,40257.46,30195.43
1133021.4767,-1924.18,25520.95,12378.36,41996.67,40262.51,30209.45
1133021.4787,-1933.15,25578.17,12608.82,42027.57,40343.43,30263.09
1133021.4807,-1948.36,25606.44,12792.54,42033.39,40398.22,30294.14
1133021.4827,-1959.85,25633.15,12953.86,42043.5,40458.83,30327.8
1133021.4847,-1974.49,25634.58,13066.96,42038.97,40497.88,30348.3
1133021.4867,-1969.58,25585.46,12886.1,42012.98,40430.6,30303.01
1133021.4887,-1965.0,25544.31,12694.65,41998.68,40365.61,30256.7
1133021.4907,-1948.45,25511.08,12472.68,41984.42,40287.98,30210.16
1133021.4927,-1936.25,25498.63,12332.11,41979.37,40238.77,30190.04
1133021.4947,-1932.24,25556.76,12526.9,42015.32,40314.54,30248.98
1133021.4967,-1942.01,25595.38,12741.61,42029.91,40384.77,30292.09
1133021.4987,-1957.23,25614.65,12880.95,42035.87,40429.41,30316.98
1133021.5007,-1974.54,25642.54,13076.59,42052.99,40507.94,30362.56
1133021.5027,-1965.09,25605.06,12970.83,42030.91,40469.13,30328.61
1133021.5047,-1947.55,25565.82,12769.89,42013.7,40397.32,30280.78
1133021.5067,-1936.1,25528.67,12561.56,41997.34,40324.03,30227.95
1133021.5087,-1933.62,25485.66,12334.3,41971.4,40239.72,30177.69
1133021.5107,-1934.96,25535.11,12439.16,42004.26,40285.45,30220.56
1133021.5127,-1947.88,25590.76,12677.48,42032.63,40370.09,30276.25
1133021.5147,-1950.69,25618.79,12835.69,42045.07,40422.11,30308.01
1133021.5167,-1961.52,25643.73,13039.88,42055.09,40492.49,30348.69
1133021.5187,-1965.09,25617.32,13024.0,42029.34,40475.52,30328.8
1133021.5207,-1951.31,25570.3,12829.16,42004.78,40407.71,30281.83
1133021.5227,-1932.72,25538.45,12628.7,41994.24,40338.85,30236.77
1133021.5247,-1925.8,25504.26,12406.06,41984.71,40266.71,30200.72
1133021.5267,-1921.94,25522.38,12368.2,42000.44,40257.65,30208.5
1133021.5287,-1932.29,25581.41,12611.2,42029.1,40344.05,30265.53
1133021.5307,-1953.7,25598.72,12770.75,42029.2,40388.26,30292.04
1133021.5327,-1971.2,25624.47,12958.72,42037.4,40450.48,30334.67
1133021.5347,-1982.07,25630.72,13058.57,42041.21,40493.06,30355.89
1133021.5367,-1985.36,25586.51,12900.78,42020.04,40439.09,30314.97
1133021.5387,-1971.44,25539.83,12678.34,41993.0,40354.54,30254.42
1133021.5407,-1941.49,25505.59,12487.13,41979.65,40289.07,30210.93
1133021.5427,-1920.56,25485.47,12312.94,41971.97,40228.04,30184.89
1133021.5447,-1919.13,25547.7,12523.13,42004.26,40302.33,30238.92
1133021.5467,-1929.76,25582.08,12721.73,42019.32,40366.7,30274.3
1133021.5487,-1950.79,25606.02,12893.63,42023.47,40419.49,30307.34
1133021.5507,-1970.82,25624.23,13049.22,42030.53,40477.81,30339.58
1133021.5527,-1976.2,25591.57,12964.92,42011.22,40450.34,30314.26
1133021.5547,-1961.66,25549.13,12738.85,41991.14,40366.42,30254.8
1133021.5567,-1937.72,25530.15,12581.78,41988.81,40315.63,30226.28
1133021.5587,-1915.36,25490.57,12336.3,41970.78,40232.23,30182.46
1133021.5607,-1909.11,25539.12,12453.8,42004.16,40281.78,30224.47
1133021.5627,-1934.34,25575.5,12663.99,42015.99,40345.63,30263.38
1133021.5647,-1954.6,25603.3,12838.65,42028.48,40406.76,30298.24
1133021.5667,-1973.82,25626.14,13009.36,42038.06,40472.37,30337.43
1133021.5687,-1988.84,25601.63,13019.37,42017.51,40472.51,30327.47
1133021.5707,-1975.68,25548.27,12812.19,41992.76,40396.46,30271.1
1133021.5727,-1957.8,25523.38,12641.1,41989.38,40337.71,30235.68
1133021.5747,-1931.05,25488.28,12391.71,41977.36,40254.79,30191.09
1133021.5767,-1923.28,25505.26,12364.39,41993.1,40249.83,30202.2
1133021.5787,-1940.54,25557.43,12587.36,42013.55,40328.22,30251.7
1133021.5807,-1954.03,25587.51,12771.66,42022.71,40385.63,30289.08
1133021.5827,-1962.71,25613.93,12945.7,42033.92,40445.38,30328.47
1133021.5847,-1984.74,25615.31,13055.37,42030.05,40484.19,30345.68
1133021.5867,-1974.44,25569.25,12888.62,42004.49,40425.16,30299.14
1133021.5887,-1948.07,25539.07,12699.18,41997.34,40364.41,30257.42
1133021.5907,-1934.1,25498.82,12477.92,41978.32,40287.69,30210.16
1133021.5927,-1922.32,25487.81,12317.8,41977.03,40235.95,30194.95
1133021.5947,-1932.1,25545.03,12515.12,42013.89,40312.53,30252.84
1133021.5967,-1943.25,25583.94,12725.35,42033.82,40386.01,30297.47
1133021.5987,-1957.46,25608.83,12894.82,42036.97,40437.18,30329.52
1133021.6007,-1981.31,25622.8,13052.89,42035.63,40490.2,30356.6
1133021.6027,-1976.16,25586.47,12963.01,42015.37,40458.87,30329.99
1133021.6047,-1964.14,25538.59,12749.34,41992.34,40379.43,30273.87
1133021.6067,-1946.93,25517.18,12573.53,41992.1,40323.93,30240.01
1133021.6087,-1944.83,25470.78,12324.05,41966.49,40228.9,30185.66
1133021.6107,-1945.64,25513.75,12425.14,41988.76,40266.18,30216.65
1133021.6127,-1949.17,25565.06,12653.73,42013.79,40344.62,30264.1
1133021.6147,-1959.09,25583.94,12820.48,42015.7,40394.36,30294.66
1133021.6167,-1988.46,25598.48,12995.58,42019.99,40454.39,30329.71
1133021.6187,-2000.19,25581.51,13016.13,42008.45,40463.36,30326.42
1133021.6207,-1980.4,25543.79,12811.85,41992.48,40397.79,30279.31
1133021.6227,-1954.75,25521.66,12638.24,41981.8,40334.85,30238.35
1133021.6247,-1929.76,25484.56,12388.85,41963.96,40245.16,30186.8
1133021.6267,-1920.65,25501.64,12360.15,41979.03,40242.68,30196.1
1133021.6287,-1920.75,25568.92,12604.57,42024.33,40334.32,30261.9
1133021.6307,-1934.91,25609.54,12802.08,42041.4,40403.75,30305.82
1133021.6327,-1959.8,25623.94,12951.09,42038.49,40447.43,30329.56
1133021.6347,-1984.17,25619.89,13067.77,42026.67,40484.48,30338.82
1133021.6367,-1966.67,25572.02,12894.82,42001.87,40423.16,30291.42
1133021.6387,-1950.69,25532.39,12705.38,41989.28,40356.55,30246.98
1133021.6407,-1943.64,25492.96,12478.64,41969.92,40274.39,30196.34
1133021.6427,-1929.33,25481.18,12324.14,41967.11,40225.46,30178.98
1133021.6447,-1930.43,25536.11,12510.92,41999.96,40294.8,30231.91
1133021.6467,-1951.55,25572.73,12725.16,42012.22,40363.41,30274.25
1133021.6487,-1968.05,25591.57,12863.11,42020.56,40408.33,30305.1
1133021.6507,-1983.5,25620.18,13061.95,42034.54,40483.19,30350.16
1133021.6527,-1979.92,25583.65,12966.3,42010.41,40447.19,30317.12
1133021.6547,-1965.05,25540.02,12762.07,41985.66,40371.23,30261.19
1133021.6567,-1947.83,25504.74,12560.04,41970.83,40302.62,30213.88
1133021.6587,-1932.96,25474.93,12344.08,41963.3,40231.52,30177.74
1133021.6607,-1937.58,25511.46,12419.13,41984.71,40261.94,30204.01
1133021.6627,-1953.03,25560.29,12651.49,42011.08,40345.24,30256.94
1133021.6647,-1959.37,25586.7,12813.71,42023.81,40400.18,30294.14
1133021.6667,-1976.11,25616.7,13024.0,42036.35,40475.99,30343.68
1133021.6687,-1990.99,25588.9,13015.08,42010.6,40465.55,30324.42
1133021.6707,-1990.41,25540.78,12818.72,41984.37,40394.74,30273.16
1133021.6727,-1980.88,25503.88,12614.25,41966.63,40321.74,30219.27
1133021.6747,-1958.8,25474.31,12400.87,41958.24,40255.5,30186.9
1133021.6767,-1945.16,25490.67,12348.08,41976.03,40243.54,30198.01
1133021.6787,-1964.38,25545.12,12584.83,42004.78,40325.31,30254.08
1133021.6807,-1966.05,25575.78,12755.54,42011.65,40382.25,30285.46
1133021.6827,-1965.62,25604.97,12946.89,42028.0,40451.72,30328.66
1133021.6847,-1975.25,25611.36,13055.56,42028.67,40492.06,30347.4
1133021.6867,-1978.73,25563.53,12900.26,41998.96,40433.75,30305.34
1133021.6887,-1960.13,25523.52,12685.49,41982.66,40357.26,30250.79
1133021.6907,-1946.69,25488.33,12493.04,41964.35,40284.16,30201.58
1133021.6927,-1926.61,25476.12,12316.75,41964.82,40228.09,30178.98
1133021.6947,-1927.71,25537.92,12521.17,42002.97,40309.1,30238.3
1133021.6966,-1944.97,25569.92,12714.91,42015.84,40370.28,30274.2
1133021.6986,-1957.46,25601.01,12891.25,42028.0,40431.41,30313.88
1133021.7006,-1971.34,25621.37,13055.66,42034.34,40489.11,30346.21
1133021.7026,-1984.41,25573.54,12969.54,42001.2,40448.77,30305.2
1133021.7046,-1965.62,25526.05,12743.95,41976.17,40364.65,30246.74
1133021.7066,-1950.69,25505.21,12584.83,41972.5,40309.67,30213.74
1133021.7086,-1928.57,25477.36,12344.74,41968.16,40237.38,30181.13
1133021.7106,-1930.52,25523.76,12442.69,42001.2,40283.35,30219.37
1133021.7126,-1944.88,25566.06,12661.27,42014.17,40351.3,30257.61
1133021.7146,-1952.31,25593.52,12836.65,42025.9,40406.85,30294.23
1133021.7166,-1964.43,25616.7,13006.5,42034.96,40468.13,30330.95
1133021.7186,-1974.73,25604.54,13035.97,42025.0,40479.62,30329.18
1133021.7206,-1965.57,25555.76,12831.83,41998.58,40404.37,30275.87
1133021.7226,-1960.85,25527.38,12657.69,41987.85,40340.91,30229.67
1133021.7246,-1942.01,25491.77,12412.22,41975.03,40260.61,30184.51
1133021.7266,-1935.1,25503.78,12365.91,41985.66,40247.87,30189.42
1133021.7286,-1942.35,25555.8,12588.45,42011.31,40321.97,30238.92
1133021.7306,-1952.27,25582.6,12771.99,42017.27,40378.38,30271.39
1133021.7326,-1972.25,25600.15,12939.36,42016.89,40432.08,30303.43
1133021.7346,-1985.17,25613.22,13066.91,42025.62,40482.48,30334.14
1133021.7366,-1969.15,25567.92,12912.94,41999.25,40425.5,30290.89
1133021.7386,-1953.7,25524.48,12710.72,41976.84,40348.2,30235.53
1133021.7406,-1942.68,25486.04,12492.09,41959.05,40269.67,30182.7
1133021.7426,-1932.57,25470.59,12318.04,41956.72,40213.11,30159.72
1133021.7446,-1938.15,25529.67,12512.11,41993.24,40289.07,30216.36
1133021.7466,-1945.35,25573.92,12719.87,42013.7,40362.65,30263.43
1133021.7486,-1962.85,25597.29,12883.71,42020.9,40415.43,30292.71
1133021.7506,-1987.03,25613.41,13051.94,42022.52,40470.65,30322.51
1133021.7526,-1982.16,25583.65,12980.84,42007.64,40451.91,30303.1
1133021.7546,-1964.71,25542.79,12770.51,41993.77,40383.73,30253.46
1133021.7566,-1958.89,25505.45,12582.59,41974.12,40313.2,30206.16
1133021.7586,-1939.34,25470.36,12339.55,41960.77,40228.75,30164.63
1133021.7606,-1939.39,25511.22,12434.58,41989.57,40268.71,30203.3
1133021.7626,-1953.79,25564.72,12660.27,42016.56,40348.73,30256.66
1133021.7646,-1977.11,25589.09,12830.64,42019.99,40401.42,30284.46
1133021.7666,-1990.89,25613.55,13008.45,42027.38,40459.45,30318.84
1133021.7686,-1983.12,25602.39,13046.08,42018.13,40476.71,30323.41
1133021.7706,-1969.58,25546.55,12832.79,41991.62,40400.56,30266.77
1133021.7726,-1968.43,25508.6,12650.01,41977.27,40333.99,30219.99
