TimeStamp,Fpz,Gnd,Fz,Cz,CPz,POz
1133266.9651,-4031.9,20656.02,9180.21,36178.26,32624.15,24268.53
1133266.9671,-4028.37,20685.48,9215.69,36199.14,32642.94,24290.37
1133266.9691,-4039.48,20727.59,9356.55,36224.37,32712.7,24338.87
1133266.9711,-4053.07,20757.63,9487.82,36241.49,32773.69,24387.27
1133266.9731,-4069.61,20773.22,9592.2,36249.07,32827.24,24429.23
1133266.9751,-4077.15,20766.4,9620.33,36240.53,32851.75,24445.73
1133266.9771,-4063.94,20730.5,9498.55,36214.64,32784.42,24390.7
1133266.9791,-4053.74,20698.5,9376.29,36194.33,32720.47,24339.11
1133266.9811,-4034.62,20669.75,9228.9,36180.5,32644.8,24282.6
1133266.9831,-4029.37,20674.76,9181.64,36188.42,32621.77,24274.97
1133266.9851,-4034.85,20726.02,9318.78,36224.89,32699.06,24337.25
1133266.9871,-4040.53,20766.36,9464.5,36248.97,32772.45,24394.18
1133266.9891,-4066.56,20769.22,9553.34,36242.68,32806.5,24411.87
1133266.9911,-4083.82,20772.41,9631.44,36243.4,32852.13,24439.53
1133266.9931,-4073.72,20736.84,9539.56,36219.98,32806.5,24401.86
1133266.9951,-4057.5,20708.28,9415.44,36203.67,32746.84,24356.18
1133266.9971,-4041.15,20682.67,9285.12,36196.43,32683.23,24307.59
1133266.9991,-4028.08,20674.14,9178.93,36195.71,32629.83,24273.21
1133267.0011,-4042.39,20705.03,9259.75,36209.97,32667.16,24302.49
1133267.0031,-4046.68,20740.03,9405.61,36229.81,32736.21,24354.27
1133267.0051,-4050.35,20758.06,9509.37,36238.29,32784.18,24388.13
1133267.0071,-4069.38,20775.03,9617.38,36248.16,32846.03,24436.52
1133267.0091,-4075.29,20745.04,9574.7,36225.66,32823.47,24411.78
1133267.0111,-4067.76,20703.22,9444.09,36200.53,32755.19,24353.65
1133267.0131,-4049.16,20684.29,9326.13,36192.37,32701.02,24311.02
1133267.0151,-4029.94,20665.6,9190.04,36187.99,32633.4,24263.67
1133267.0171,-4032.28,20688.73,9214.5,36203.91,32643.47,24276.93
1133267.0191,-4054.21,20729.12,9364.42,36224.89,32714.04,24329.14
1133267.0211,-4056.74,20758.11,9481.96,36238.63,32768.44,24368.29
1133267.0231,-4067.14,20778.18,9591.96,36246.21,32828.1,24417.88
1133267.0251,-4076.24,20766.88,9610.08,36237.15,32844.88,24431.61
1133267.0271,-4063.8,20735.22,9503.79,36222.18,32794.81,24392.04
1133267.0291,-4057.93,20697.88,9371.04,36200.58,32727.44,24336.25
1133267.0311,-4049.4,20663.41,9219.93,36176.97,32646.56,24275.69
1133267.0331,-4032.56,20676.76,9172.15,36191.13,32624.63,24266.68
1133267.0351,-4039.81,20721.77,9308.01,36220.98,32692.63,24323.51
1133267.0371,-4051.45,20746.66,9433.41,36225.47,32741.88,24357.99
1133267.0391,-4061.65,20767.17,9546.95,36234.43,32795.91,24397.85
1133267.0411,-4075.15,20772.46,9625.15,36239.29,32849.98,24438.15
1133267.0431,-4080.82,20735.89,9534.69,36215.93,32806.16,24401.24
1133267.0451,-4072.05,20700.17,9399.22,36195.43,32737.35,24347.02
1133267.0471,-4052.69,20677.24,9273.91,36187.65,32675.32,24301.25
1133267.0491,-4039.34,20663.17,9159.14,36177.21,32615.47,24261.86
1133267.0511,-4044.82,20704.99,9254.27,36207.3,32666.59,24304.2
1133267.0531,-4052.83,20742.23,9397.7,36227.09,32732.68,24353.65
1133267.0551,-4065.32,20761.59,9510.66,36235.19,32784.13,24394.23
1133267.0571,-4084.06,20773.84,9616.09,36243.35,32845.88,24439.05
1133267.0591,-4081.44,20744.28,9575.08,36226.42,32826.71,24417.55
1133267.0611,-4071.33,20702.08,9439.76,36203.82,32757.95,24362.28
1133267.0631,-4059.32,20677.9,9316.06,36194.23,32702.26,24318.13
1133267.0651,-4046.35,20656.64,9180.93,36184.46,32637.08,24274.64
1133267.0671,-4050.45,20678.0,9202.1,36202.53,32648.38,24291.85
1133267.0691,-4063.8,20719.24,9350.97,36228.09,32722.29,24348.55
1133267.0711,-4075.15,20740.08,9465.03,36230.04,32764.82,24376.97
1133267.0731,-4083.11,20759.78,9572.94,36232.33,32817.8,24416.07
1133267.0751,-4080.49,20758.44,9600.78,36233.0,32839.49,24437.72
1133267.0771,-4080.96,20718.05,9481.1,36207.35,32776.31,24389.22
1133267.0791,-4065.7,20692.49,9354.88,36194.76,32715.04,24338.06
1133267.0811,-4036.24,20676.04,9231.14,36191.18,32657.44,24295.24
1133267.0831,-4028.03,20674.85,9168.44,36192.99,32619.53,24274.3
1133267.0851,-4045.15,20714.33,9302.95,36214.88,32684.38,24326.14
1133267.0871,-4053.16,20747.0,9434.37,36225.99,32738.69,24363.43
1133267.0891,-4063.32,20765.12,9544.66,36235.62,32792.62,24402.53
1133267.0911,-4070.19,20772.41,9617.19,36244.11,32840.4,24440.01
1133267.0931,-4066.66,20742.23,9537.41,36224.18,32805.64,24410.54
1133267.0951,-4054.74,20709.42,9400.8,36206.2,32739.12,24351.79
1133267.0971,-4042.67,20686.92,9281.49,36197.09,32681.37,24310.07
1133267.0991,-4031.47,20666.03,9155.04,36189.32,32613.0,24265.67
1133267.1011,-4033.85,20705.27,9255.22,36215.41,32667.83,24312.21
1133267.1031,-4045.3,20740.13,9392.69,36228.71,32726.67,24355.03
1133267.1051,-4069.42,20762.45,9508.37,36234.62,32777.46,24390.03
1133267.1071,-4084.92,20776.47,9601.5,36245.35,32829.53,24432.38
1133267.1091,-4077.39,20758.49,9579.33,36235.81,32825.04,24426.22
1133267.1111,-4051.92,20717.96,9442.52,36211.45,32754.81,24371.44
1133267.1131,-4040.0,20689.87,9325.27,36196.28,32697.54,24327.19
1133267.1151,-4022.79,20664.55,9174.25,36182.6,32617.05,24270.44
1133267.1171,-4017.93,20696.59,9211.83,36207.01,32637.79,24294.47
1133267.1191,-4035.09,20731.55,9347.06,36224.27,32701.02,24336.58
1133267.1211,-4052.73,20756.77,9471.89,36235.72,32759.15,24377.44
1133267.1231,-4066.56,20777.37,9580.57,36247.69,32818.32,24424.13
1133267.1251,-4071.05,20775.18,9616.76,36250.07,32848.12,24449.16
1133267.1271,-4059.46,20735.55,9493.64,36228.42,32787.71,24399.76
1133267.1291,-4059.55,20699.17,9365.89,36205.39,32721.57,24345.59
1133267.1311,-4041.48,20670.85,9220.41,36190.47,32646.61,24290.33
1133267.1331,-4022.22,20682.0,9175.87,36201.2,32623.44,24284.32
1133267.1351,-4034.76,20723.2,9303.24,36225.13,32687.38,24332.34
1133267.1371,-4050.45,20755.53,9440.8,36237.48,32748.23,24375.01
1133267.1391,-4061.6,20771.55,9541.61,36247.88,32795.72,24409.68
1133267.1411,-4071.52,20783.71,9628.73,36260.47,32856.37,24459.27
1133267.1431,-4061.75,20749.81,9541.46,36244.25,32815.79,24427.61
1133267.1451,-4057.65,20710.38,9408.95,36221.79,32747.08,24373.11
1133267.1471,-4045.11,20683.2,9277.92,36206.3,32680.37,24319.37
1133267.1491,-4034.76,20665.98,9162.09,36198.1,32618.24,24278.31
1133267.1511,-4048.11,20701.84,9247.49,36219.89,32662.4,24314.31
1133267.1531,-4061.32,20743.9,9397.56,36242.49,32734.3,24366.52
1133267.1551,-4062.27,20764.97,9503.6,36252.07,32778.22,24397.33
1133267.1571,-4073.48,20781.19,9612.7,36263.52,32841.26,24446.44
1133267.1591,-4072.71,20757.77,9577.66,36249.36,32830.19,24434.0
1133267.1611,-4056.98,20723.54,9454.63,36231.57,32769.87,24388.03
1133267.1631,-4046.35,20697.41,9333.37,36218.27,32708.7,24341.73
1133267.1651,-4025.75,20682.62,9200.19,36214.26,32645.04,24298.72
1133267.1671,-4020.64,20702.7,9218.65,36229.81,32649.9,24308.21
1133267.1691,-4035.04,20741.66,9366.08,36252.46,32720.57,24360.23
1133267.1711,-4045.92,20764.26,9475.85,36258.89,32767.92,24393.28
1133267.1731,-4056.41,20790.53,9595.11,36276.01,32832.1,24447.73
1133267.1751,-4062.7,20784.09,9626.06,36268.0,32855.42,24465.04
1133267.1771,-4059.08,20741.42,9505.46,36239.1,32792.0,24411.73
1133267.1791,-4048.3,20714.48,9377.1,36224.75,32730.2,24361.76
1133267.1811,-4029.85,20690.49,9246.16,36216.17,32663.78,24315.5
1133267.1831,-4024.51,20692.3,9188.32,36221.84,32632.55,24299.15
1133267.1851,-4038.91,20739.46,9319.69,36246.73,32698.59,24352.12
1133267.1871,-4045.44,20767.88,9451.44,36258.46,32753.85,24394.94
1133267.1891,-4060.32,20785.57,9561.44,36265.0,32804.97,24429.71
1133267.1911,-4074.29,20796.73,9643.7,36272.58,32860.33,24466.28
1133267.1931,-4074.76,20764.26,9562.16,36254.7,32822.66,24431.28
1133267.1951,-4055.31,20722.3,9421.68,36230.52,32750.23,24372.53
1133267.1971,-4032.8,20695.4,9291.7,36211.3,32681.56,24320.08
1133267.1991,-4012.59,20683.0,9180.79,36205.92,32621.77,24280.69
1133267.2011,-4037.81,20710.33,9258.03,36223.03,32656.44,24314.84
1133267.2031,-4049.87,20754.67,9402.85,36247.78,32732.63,24366.48
1133267.2051,-4056.55,20773.84,9513.43,36254.7,32778.36,24397.61
1133267.2071,-4063.8,20786.96,9620.72,36262.52,32837.97,24448.78
1133267.2091,-4065.75,20763.5,9589.48,36245.68,32823.85,24435.57
1133267.2111,-4059.27,20725.73,9454.01,36221.89,32755.28,24380.31
1133267.2131,-4044.91,20701.6,9333.52,36207.97,32693.82,24334.96
1133267.2151,-4025.56,20674.85,9197.24,36196.9,32626.39,24285.13
1133267.2171,-4024.7,20692.4,9207.15,36210.26,32628.16,24291.57
1133267.2191,-4037.33,20740.89,9356.88,36238.96,32704.26,24348.17
1133267.2211,-4045.39,20768.88,9481.24,36251.22,32757.19,24383.93
1133267.2231,-4061.99,20789.82,9595.73,36260.28,32820.66,24434.33
1133267.2251,-4067.28,20780.28,9616.81,36253.5,32839.16,24445.2
1133267.2271,-4059.65,20736.55,9496.07,36225.04,32776.55,24393.66
1133267.2291,-4058.12,20699.55,9359.65,36202.15,32704.36,24339.87
1133267.2311,-4037.71,20676.81,9233.14,36187.89,32638.22,24296.33
1133267.2331,-4018.16,20681.34,9170.2,36192.23,32603.51,24274.35
1133267.2351,-4031.61,20724.3,9306.38,36217.36,32676.41,24329.62
1133267.2371,-4054.79,20750.0,9432.36,36229.81,32730.01,24368.81
1133267.2391,-4068.42,20771.94,9546.66,36243.3,32786.66,24412.92
1133267.2411,-4071.47,20781.57,9622.1,36251.84,32835.11,24452.59
1133267.2431,-4064.51,20750.72,9549.09,36234.43,32800.82,24425.84
1133267.2451,-4053.64,20714.86,9410.29,36212.64,32726.34,24361.8
1133267.2471,-4047.87,20689.44,9291.36,36198.62,32668.74,24315.12
1133267.2491,-4031.99,20675.47,9166.34,36191.23,32603.94,24272.97
1133267.2511,-4046.73,20713.86,9261.04,36219.79,32657.01,24318.46
1133267.2531,-4054.4,20749.38,9398.8,36239.29,32721.19,24363.52
1133267.2551,-4054.4,20771.79,9515.72,36250.45,32775.36,24403.53
1133267.2571,-4062.89,20780.85,9608.75,36256.75,32830.43,24444.63
1133267.2591,-4068.23,20759.78,9585.67,36240.44,32821.85,24434.71
1133267.2611,-4054.83,20724.92,9458.54,36225.85,32761.1,24388.03
1133267.2631,-4040.43,20700.5,9348.16,36212.02,32705.12,24347.02
1133267.2651,-4018.74,20675.52,9195.19,36200.29,32630.59,24293.0
1133267.2671,-4023.22,20699.12,9215.02,36213.93,32640.46,24310.07
1133267.2691,-4043.48,20734.65,9347.39,36229.47,32700.02,24351.5
1133267.2711,-4059.36,20763.78,9477.14,36244.16,32759.48,24392.51
1133267.2731,-4068.9,20781.95,9584.57,36252.79,32813.55,24435.9
1133267.2751,-4069.57,20778.47,9619.57,36250.02,32838.3,24451.21
1133267.2771,-4064.42,20727.73,9491.25,36217.36,32766.16,24393.28
1133267.2791,-4058.27,20701.84,9377.62,36206.87,32714.23,24352.7
1133267.2811,-4036.33,20675.8,9231.71,36195.28,32642.32,24297.29
1133267.2831,-4021.65,20676.66,9174.54,36199.57,32610.04,24283.56
1133267.2851,-4042.01,20706.61,9286.36,36212.64,32661.25,24324.56
1133267.2871,-4054.59,20740.8,9425.55,36229.52,32728.87,24375.2
1133267.2891,-4075.05,20758.11,9528.97,36236.48,32780.89,24415.64
1133267.2911,-4088.93,20767.69,9614.09,36241.44,32832.39,24454.98
1133267.2931,-4074.0,20730.55,9528.54,36217.69,32786.99,24416.64
1133267.2951,-4060.79,20696.83,9401.85,36196.05,32721.19,24363.0
1133267.2971,-4047.59,20671.61,9271.29,36182.46,32658.34,24312.07
1133267.2991,-4022.55,20661.79,9157.37,36184.32,32606.08,24277.83
1133267.3011,-4036.47,20689.2,9232.24,36200.67,32643.61,24309.69
1133267.3031,-4048.54,20731.79,9385.49,36225.75,32717.37,24369.43
1133267.3051,-4074.91,20742.47,9488.25,36229.42,32760.53,24399.66
1133267.3071,-4107.29,20753.82,9594.97,36241.63,32826.24,24452.36
1133267.3091,-4109.19,20733.36,9568.02,36231.33,32819.18,24442.68
1133267.3111,-4075.58,20707.51,9447.58,36210.97,32755.14,24385.26
1133267.3131,-4051.16,20689.01,9326.13,36195.14,32690.1,24334.34
1133267.3151,-4031.85,20662.12,9183.31,36179.17,32614.95,24279.88
1133267.3171,-4018.02,20686.72,9200.0,36199.24,32626.73,24297.1
1133267.3191,-4020.31,20738.79,9356.69,36232.14,32707.89,24363.28
1133267.3211,-4027.22,20765.07,9475.61,36244.25,32758.76,24394.42
1133267.3231,-4040.58,20785.52,9590.2,36256.37,32814.41,24435.67
1133267.3251,-4067.33,20769.17,9612.85,36239.82,32825.14,24432.47
1133267.3271,-4067.28,20733.69,9498.22,36215.02,32767.11,24383.02
1133267.3291,-4044.06,20709.28,9378.05,36204.68,32711.94,24341.73
1133267.3311,-4041.0,20677.04,9233.14,36184.46,32637.89,24285.84
1133267.3331,-4033.71,20683.58,9174.3,36190.99,32604.89,24265.53
1133267.3351,-4024.12,20729.69,9305.1,36217.36,32667.12,24318.79
1133267.3371,-4015.02,20765.26,9443.19,36237.01,32736.45,24373.01
1133267.3391,-4022.84,20780.61,9552.15,36243.44,32786.99,24410.3
1133267.3411,-4033.61,20782.85,9627.49,36240.96,32831.39,24440.43
1133267.3431,-4011.58,20754.91,9548.95,36224.8,32797.05,24411.16
1133267.3451,-3987.41,20727.59,9421.16,36212.16,32736.11,24364.62
1133267.3471,-3992.89,20693.4,9288.93,36191.66,32665.21,24309.02
1133267.3491,-3986.36,20674.61,9168.44,36177.4,32597.45,24259.76
1133267.3511,-3993.37,20712.76,9248.69,36202.15,32640.6,24296.81
1133267.3531,-4021.36,20748.38,9391.64,36225.04,32709.55,24344.3
1133267.3551,-4053.07,20774.7,9509.14,36238.2,32761.96,24383.69
1133267.3571,-4070.28,20785.05,9614.04,36244.25,32823.61,24431.23
1133267.3591,-4047.16,20752.86,9574.84,36223.94,32806.92,24413.11
1133267.3611,-4018.16,20712.66,9441.81,36202.53,32742.31,24363.09
1133267.3631,-4007.2,20685.87,9318.35,36191.13,32683.33,24317.46
1133267.3651,-3990.94,20664.17,9185.32,36183.27,32619.05,24275.88
1133267.3671,-3987.69,20690.49,9206.34,36206.39,32628.97,24296.76
1133267.3691,-4009.58,20728.59,9350.92,36221.08,32695.44,24347.02
1133267.3711,-4027.99,20748.19,9461.36,36223.08,32739.98,24374.39
1133267.3731,-4041.34,20774.56,9582.62,36240.77,32809.36,24428.23
1133267.3751,-4060.55,20757.92,9605.27,36227.28,32823.04,24435.14
1133267.3771,-4050.73,20726.16,9497.02,36210.11,32773.36,24397.09
1133267.3791,-4045.68,20701.32,9372.28,36196.14,32710.46,24346.64
1133267.3811,-4038.62,20675.61,9243.92,36187.32,32646.37,24300.34
1133267.3831,-4031.9,20671.04,9166.53,36186.46,32604.32,24274.78
1133267.3851,-4035.04,20718.29,9301.04,36213.83,32674.36,24327.61
1133267.3871,-4032.66,20749.52,9433.08,36229.9,32735.26,24368.91
1133267.3891,-4041.82,20770.5,9548.86,36241.25,32792.29,24415.69
1133267.3911,-4058.93,20769.03,9614.75,36233.33,32825.24,24437.43
1133267.3931,-4059.36,20729.93,9535.36,36209.16,32785.56,24401.72
1133267.3951,-4052.26,20690.06,9391.5,36187.56,32715.99,24347.98
1133267.3971,-4053.55,20671.99,9278.58,36182.41,32666.35,24308.83
1133267.3991,-4018.12,20663.55,9157.94,36181.64,32607.03,24272.59
1133267.4011,-4009.91,20703.75,9253.31,36211.07,32660.49,24321.8
1133267.4031,-4025.46,20737.6,9394.07,36229.19,32725.48,24372.53
1133267.4051,-4049.35,20755.25,9507.8,36236.2,32773.4,24407.29
1133267.4071,-4071.19,20765.74,9599.35,36239.34,32821.9,24442.96
1133267.4091,-4072.86,20749.76,9582.38,36225.18,32820.37,24443.34
1133267.4111,-4053.21,20710.71,9447.15,36205.44,32756.0,24390.41
1133267.4131,-4041.53,20684.01,9333.33,36195.76,32701.45,24349.22
1133267.4151,-4029.47,20652.34,9176.45,36176.21,32617.48,24288.85
1133267.4171,-4026.75,20678.95,9197.62,36196.38,32631.35,24305.16
1133267.4191,-4046.97,20720.48,9336.66,36219.98,32698.97,24356.32
1133267.4211,-4074.1,20742.94,9462.31,36227.18,32751.28,24394.47
1133267.4231,-4084.87,20752.34,9562.78,36228.8,32801.87,24433.9
1133267.4251,-4089.17,20753.43,9610.75,36236.29,32839.83,24464.42
1133267.4271,-4081.15,20719.2,9494.26,36217.6,32783.04,24415.88
1133267.4291,-4055.79,20693.69,9377.62,36206.54,32727.96,24370.63
1133267.4311,-4026.27,20664.07,9232.19,36188.8,32653.0,24311.78
1133267.4331,-4016.92,20671.7,9173.35,36197.24,32626.54,24295.91
1133267.4351,-4025.41,20726.73,9306.43,36233.14,32698.02,24354.99
1133267.4371,-4033.09,20752.53,9442.76,36243.82,32755.95,24396.61
1133267.4391,-4042.53,20761.02,9537.46,36243.3,32793.29,24420.07
1133267.4411,-4066.18,20763.64,9620.14,36245.49,32843.02,24456.65
1133267.4431,-4065.37,20732.93,9543.09,36225.61,32806.59,24427.13
1133267.4451,-4055.07,20705.37,9420.35,36212.45,32746.8,24383.31
1133267.4471,-4039.86,20680.33,9290.51,36200.91,32684.23,24333.62
1133267.4491,-4029.75,20656.21,9162.95,36188.08,32616.91,24287.66
1133267.4511,-4040.67,20686.1,9238.91,36204.87,32652.91,24317.41
1133267.4531,-4047.01,20725.06,9389.26,36225.99,32724.77,24372.87
1133267.4551,-4061.84,20741.04,9492.83,36231.86,32768.4,24403.57
1133267.4571,-4079.96,20758.3,9601.88,36244.68,32833.2,24449.54
1133267.4591,-4083.97,20737.56,9578.42,36235.77,32833.06,24443.1
1133267.4611,-4081.06,20699.79,9451.1,36213.83,32765.58,24390.65
1133267.4631,-4071.24,20674.52,9327.84,36198.67,32700.21,24335.48
1133267.4651,-4050.83,20656.3,9188.75,36188.61,32632.83,24288.7
1133267.4671,-4035.28,20679.86,9204.05,36207.87,32642.51,24304.2
1133267.4691,-4040.81,20715.72,9345.91,36226.09,32709.75,24353.79
1133267.4711,-4042.77,20735.93,9459.45,36235.24,32758.38,24388.98
1133267.4731,-4049.97,20762.78,9576.85,36255.79,32823.33,24443.34
1133267.4751,-4055.21,20760.92,9618.24,36255.41,32851.08,24459.65
1133267.4771,-4052.73,20725.78,9511.14,36232.76,32793.43,24405.77
1133267.4791,-4044.25,20698.84,9388.97,36217.98,32731.54,24355.03
1133267.4811,-4020.55,20680.19,9256.41,36208.68,32668.88,24310.97
1133267.4831,-4034.38,20663.31,9171.44,36190.47,32616.14,24274.4
1133267.4851,-4051.07,20698.93,9290.08,36210.92,32673.41,24322.89
1133267.4871,-4054.64,20730.78,9422.59,36223.94,32733.97,24367.0
1133267.4891,-4058.12,20759.97,9544.8,36242.06,32796.24,24414.35
1133267.4911,-4068.18,20773.22,9634.78,36252.6,32853.46,24458.94
1133267.4931,-4065.99,20738.46,9551.62,36232.71,32816.6,24426.22
1133267.4951,-4061.89,20694.74,9411.15,36207.39,32741.65,24366.29
1133267.4971,-4058.55,20672.61,9288.74,36195.9,32680.18,24322.13
1133267.4991,-4036.52,20657.11,9168.91,36189.13,32619.43,24282.74
1133267.5011,-4038.24,20693.92,9249.59,36215.02,32662.25,24322.66
1133267.5031,-4055.21,20728.07,9389.54,36231.09,32728.15,24373.3
1133267.5051,-4070.0,20742.61,9493.26,36233.52,32768.97,24395.66
1133267.5071,-4088.45,20748.47,9598.02,36237.29,32827.72,24437.0
1133267.509,-4089.4,20727.06,9572.79,36228.33,32822.33,24430.04
1133267.511,-4068.52,20696.26,9451.01,36213.55,32766.44,24384.88
1133267.513,-4042.96,20674.14,9331.37,36202.86,32708.79,24338.63
1133267.515,-4023.7,20650.29,9196.33,36191.37,32637.84,24290.99
1133267.517,-4033.38,20667.22,9199.53,36202.86,32637.46,24298.58
1133267.519,-4051.07,20708.71,9344.87,36225.75,32707.65,24352.98
1133267.521,-4058.12,20734.69,9463.65,36234.91,32757.48,24388.03
1133267.523,-4071.95,20755.1,9578.42,36245.06,32815.94,24435.0
1133267.525,-4080.87,20745.8,9611.85,36240.3,32841.02,24447.4
1133267.527,-4068.42,20712.14,9504.41,36223.42,32791.14,24406.96
1133267.529,-4052.54,20687.06,9379.15,36213.93,32730.49,24363.71
1133267.531,-4053.31,20652.3,9240.44,36191.61,32657.1,24310.07
1133267.533,-4040.29,20652.77,9163.43,36191.42,32614.52,24281.89
1133267.535,-4048.06,20701.27,9298.99,36219.22,32683.09,24338.06
1133267.537,-4074.05,20728.4,9425.55,36228.71,32737.45,24376.25
1133267.539,-4084.4,20746.14,9534.07,36234.81,32786.9,24409.68
1133267.541,-4081.11,20748.52,9606.89,36236.1,32827.52,24437.95
1133267.543,-4070.38,20713.0,9536.41,36212.97,32794.29,24408.96
1133267.545,-4061.51,20672.28,9398.51,36193.8,32726.29,24355.08
1133267.547,-4045.25,20659.02,9288.12,36187.37,32673.89,24315.69
1133267.549,-4032.9,20636.8,9152.41,36173.01,32600.26,24263.1
1133267.551,-4044.82,20669.61,9236.29,36192.37,32642.94,24301.44
1133267.553,-4059.79,20703.51,9372.76,36206.15,32702.97,24346.26
1133267.555,-4076.67,20729.45,9491.06,36217.03,32756.62,24388.27
1133267.557,-4088.45,20746.66,9591.15,36230.52,32816.37,24437.38
1133267.559,-4086.49,20730.16,9580.66,36218.74,32814.7,24431.14
1133267.561,-4068.66,20694.07,9451.49,36202.58,32752.33,24379.16
1133267.563,-4049.87,20676.09,9343.29,36198.48,32705.45,24344.02
1133267.565,-4031.75,20643.05,9185.27,36177.16,32620.82,24283.94
1133267.567,-4029.75,20664.6,9200.19,36188.08,32625.35,24294.81
1133267.569,-4033.38,20715.81,9347.15,36219.6,32701.88,24352.36
1133267.571,-4059.65,20731.17,9464.88,36220.6,32746.27,24374.73
1133267.573,-4076.53,20742.13,9566.21,36220.79,32793.72,24409.11
1133267.575,-4090.64,20736.65,9607.17,36218.89,32824.66,24432.38
1133267.577,-4088.93,20694.07,9487.96,36194.0,32765.25,24382.31
1133267.579,-4067.14,20673.28,9373.43,36188.18,32714.28,24341.06
1133267.581,-4047.73,20639.8,9227.52,36167.39,32636.93,24287.61
1133267.583,-4048.11,20640.76,9159.14,36169.39,32598.74,24267.44
1133267.585,-4061.27,20687.53,9282.07,36200.58,32665.64,24318.65
1133267.587,-4061.27,20719.24,9423.3,36217.5,32729.2,24365.57
1133267.589,-4071.71,20734.65,9526.44,36223.8,32775.55,24398.62
1133267.591,-4088.35,20745.8,9619.57,36232.62,32832.91,24440.43
1133267.593,-4080.39,20717.19,9540.51,36214.55,32796.48,24408.25
1133267.595,-4058.08,20689.78,9418.06,36203.58,32740.55,24365.33
1133267.597,-4046.3,20658.64,9284.97,36186.99,32676.22,24317.89
1133267.599,-4034.57,20640.14,9163.48,36179.26,32615.47,24280.17
1133267.601,-4034.85,20684.15,9247.02,36208.78,32664.3,24322.7
1133267.603,-4054.98,20715.24,9386.97,36220.22,32726.01,24365.48
1133267.605,-4063.23,20734.36,9491.16,36224.85,32766.73,24390.51
1133267.607,-4079.77,20752.77,9602.88,36235.58,32827.76,24436.33
1133267.609,-4080.11,20728.64,9578.61,36220.46,32817.84,24430.95
1133267.611,-4067.95,20688.87,9447.58,36197.0,32753.66,24379.16
1133267.613,-4054.12,20660.55,9324.17,36182.12,32692.67,24331.38
1133267.615,-4039.14,20633.84,9178.97,36162.81,32613.57,24275.97
1133267.617,-4042.44,20653.97,9187.89,36175.78,32617.24,24283.56
1133267.619,-4065.47,20689.97,9329.03,36195.09,32686.29,24330.33
1133267.621,-4080.39,20712.09,9442.76,36206.39,32735.97,24361.52
1133267.623,-4084.02,20746.23,9565.45,36227.9,32802.49,24417.36
1133267.625,-4080.92,20747.62,9612.13,36229.9,32836.97,24448.45
1133267.627,-4068.57,20708.47,9498.22,36205.2,32778.08,24402.43
1133267.629,-4056.12,20675.85,9370.57,36187.32,32711.75,24350.69
1133267.631,-4042.39,20650.82,9235.81,36178.26,32648.76,24305.16
1133267.633,-4034.81,20647.0,9165.0,36178.45,32614.14,24282.46
1133267.635,-4043.34,20685.48,9285.88,36201.77,32673.41,24326.57
1133267.637,-4052.83,20710.66,9414.96,36210.92,32728.63,24365.81
1133267.639,-4056.17,20741.32,9534.46,36230.47,32790.04,24413.06
1133267.641,-4078.25,20744.52,9617.81,36234.53,32841.4,24449.97
1133267.643,-4077.63,20714.91,9542.23,36216.64,32806.11,24417.83
1133267.645,-4070.81,20675.71,9406.76,36196.05,32736.97,24365.71
1133267.647,-4056.74,20652.15,9281.35,36182.46,32675.32,24320.75
1133267.649,-4037.81,20633.89,9157.18,36170.92,32609.42,24275.73
1133267.651,-4035.04,20676.57,9240.25,36196.43,32651.57,24315.26
1133267.653,-4046.54,20714.48,9386.4,36212.64,32715.04,24363.14
1133267.655,-4058.17,20732.02,9496.98,36216.02,32754.33,24386.55
1133267.657,-4063.08,20761.73,9622.91,36238.05,32831.34,24445.49
1133267.659,-4069.47,20737.7,9595.44,36222.46,32823.42,24436.76
1133267.661,-4067.95,20697.21,9464.88,36197.48,32757.48,24381.83
1133267.663,-4061.22,20659.88,9329.37,36177.73,32688.34,24323.42
1133267.665,-4040.43,20635.51,9191.94,36164.81,32620.67,24277.4
1133267.667,-4035.9,20652.39,9189.46,36177.93,32619.05,24284.51
1133267.669,-4046.15,20696.69,9335.61,36202.91,32692.48,24341.35
1133267.671,-4057.22,20724.44,9457.97,36217.55,32743.51,24377.87
1133267.673,-4073.62,20744.76,9571.46,36230.23,32803.68,24421.36
1133267.675,-4074.76,20740.85,9607.22,36228.57,32835.73,24438.29
1133267.677,-4065.94,20703.65,9498.88,36204.49,32782.7,24396.23
1133267.679,-4056.41,20667.89,9367.04,36186.22,32713.8,24344.11
1133267.681,-4038.38,20648.24,9246.26,36176.97,32653.24,24303.77
1133267.683,-4022.79,20643.81,9164.67,36173.63,32606.32,24274.78
1133267.685,-4035.19,20685.72,9294.46,36197.57,32670.22,24325.76
1133267.687,-4042.58,20725.21,9429.12,36220.22,32735.49,24375.44
1133267.689,-4065.04,20744.61,9539.32,36230.0,32790.14,24415.11
1133267.691,-4086.83,20747.47,9613.09,36232.19,32836.3,24448.54
1133267.693,-4078.77,20717.58,9547.85,36215.31,32807.31,24425.46
1133267.695,-4055.21,20683.43,9414.39,36200.58,32740.6,24374.2
1133267.697,-4040.43,20658.78,9300.38,36188.42,32687.48,24331.05
1133267.699,-4027.75,20636.18,9159.71,36172.97,32612.09,24279.74
1133267.701,-4040.19,20669.61,9238.91,36193.85,32650.76,24306.92
1133267.703,-4062.51,20699.17,9374.05,36205.63,32711.13,24348.4
1133267.705,-4083.97,20721.58,9489.73,36214.45,32764.44,24388.03
1133267.707,-4091.36,20741.04,9589.72,36229.28,32824.04,24433.66
1133267.709,-4085.35,20726.97,9580.57,36222.37,32825.66,24437.1
1133267.711,-4074.81,20682.39,9445.24,36197.24,32755.57,24380.16
1133267.713,-4063.46,20659.64,9337.76,36188.13,32704.02,24341.78
1133267.715,-4037.57,20638.18,9190.8,36174.54,32627.73,24290.28
1133267.717,-4036.14,20657.35,9195.95,36187.89,32631.64,24300.01
1133267.719,-4045.77,20693.26,9326.7,36204.77,32689.53,24342.21
1133267.721,-4068.18,20712.66,9446.86,36212.4,32740.45,24377.64
1133267.723,-4089.4,20725.54,9550.86,36219.41,32793.48,24418.55
1133267.725,-4101.9,20726.78,9600.59,36218.7,32827.1,24441.63
1133267.727,-4086.83,20691.78,9485.77,36196.9,32772.21,24397.04
1133267.729,-4070.81,20662.55,9365.66,36181.69,32712.46,24353.98
1133267.731,-4057.03,20633.56,9221.27,36168.72,32641.84,24303.34
1133267.733,-4047.87,20628.31,9147.22,36170.06,32604.6,24283.32
1133267.735,-4061.17,20665.6,9263.71,36189.94,32658.01,24323.61
1133267.737,-4069.28,20699.17,9399.84,36204.25,32719.04,24365.33
1133267.739,-4083.2,20718.05,9503.41,36212.35,32766.44,24397.33
1133267.741,-4097.41,20734.12,9602.21,36222.32,32825.47,24441.39
1133267.743,-4094.41,20697.69,9524.06,36196.0,32782.7,24404.34
1133267.745,-4083.82,20662.98,9398.46,36176.97,32718.81,24353.13
1133267.747,-4066.23,20638.85,9271.34,36169.01,32661.87,24308.02
1133267.749,-4053.31,20616.58,9141.4,36157.37,32595.11,24263.58
1133267.751,-4057.36,20653.25,9216.74,36180.83,32634.17,24299.67
1133267.753,-4057.98,20702.65,9369.99,36210.83,32715.42,24356.89
1133267.755,-4064.56,20722.34,9478.38,36222.32,32762.91,24388.46
1133267.757,-4069.38,20748.19,9601.5,36242.3,32833.2,24444.39
1133267.759,-4074.67,20726.59,9581.42,36227.04,32826.28,24432.19
1133267.761,-4071.71,20682.62,9445.62,36199.1,32755.81,24374.49
1133267.763,-4056.26,20662.45,9328.03,36190.9,32700.16,24335.72
1133267.765,-4035.09,20643.28,9192.18,36183.55,32634.98,24294.43
1133267.767,-4040.43,20656.49,9189.99,36190.32,32626.44,24295.29
1133267.769,-4064.85,20695.78,9334.95,36209.78,32693.72,24342.68
1133267.771,-4069.33,20721.34,9451.63,36218.98,32743.74,24375.25
1133267.773,-4075.0,20743.75,9562.78,36233.0,32805.64,24421.22
1133267.775,-4085.59,20737.94,9610.46,36232.38,32837.92,24444.54
1133267.777,-4080.34,20698.69,9498.26,36208.54,32778.84,24397.85
1133267.779,-4077.1,20665.12,9368.71,36188.46,32713.37,24344.69
1133267.781,-4057.98,20632.51,9229.23,36170.15,32644.47,24292.9
1133267.783,-4039.24,20636.47,9157.18,36177.5,32612.38,24277.4
1133267.785,-4058.08,20680.05,9279.68,36206.01,32677.23,24327.09
1133267.787,-4071.14,20708.56,9407.9,36217.07,32732.16,24363.66
1133267.789,-4073.43,20733.98,9524.16,36231.19,32786.75,24408.82
1133267.791,-4087.73,20735.12,9610.61,36231.9,32837.78,24446.63
1133267.793,-4078.48,20703.56,9536.6,36212.26,32801.73,24412.11
1133267.795,-4075.48,20665.17,9399.37,36186.94,32732.78,24354.89
1133267.797,-4066.09,20642.33,9275.01,36177.31,32675.08,24311.31
1133267.799,-4045.06,20628.26,9154.37,36171.15,32616.91,24274.5
1133267.801,-4046.11,20661.93,9225.99,36191.61,32653.62,24307.3
1133267.803,-4066.56,20689.68,9361.98,36203.82,32709.03,24345.69
1133267.805,-4083.11,20708.99,9470.8,36210.3,32750.99,24378.54
1133267.807,-4102.71,20731.79,9589.63,36224.66,32819.8,24434.66
1133267.809,-4106.47,20714.76,9570.41,36209.16,32813.46,24426.51
1133267.811,-4088.69,20674.66,9441.23,36183.08,32749.75,24374.63
1133267.813,-4054.17,20654.49,9323.55,36180.79,32698.21,24338.11
1133267.815,-4037.14,20625.55,9184.17,36166.91,32629.78,24289.9
1133267.817,-4038.76,20642.19,9178.88,36177.69,32621.96,24289.56
1133267.819,-4053.97,20684.29,9328.46,36203.82,32693.82,24344.64
1133267.821,-4070.71,20706.08,9443.24,36210.68,32742.31,24376.4
1133267.823,-4088.55,20729.35,9561.59,36223.27,32801.82,24418.4
1133267.825,-4098.75,20723.97,9598.49,36217.93,32826.86,24435.24
1133267.827,-4093.12,20680.67,9489.25,36193.09,32772.07,24389.65
1133267.829,-4075.0,20647.19,9357.17,36175.4,32704.07,24334.82
1133267.831,-4059.74,20623.64,9228.28,36162.05,32642.51,24289.18
1133267.833,-4047.01,20625.36,9151.75,36168.82,32604.84,24270.2
1133267.835,-4059.98,20668.08,9281.83,36195.0,32673.03,24322.99
1133267.837,-4067.8,20701.12,9410.0,36208.49,32728.25,24361.28
1133267.839,-4067.47,20730.31,9530.97,36226.23,32791.19,24412.3
1133267.841,-4071.57,20737.03,9611.7,36228.52,32836.25,24445.68
1133267.843,-4078.44,20695.97,9536.51,36198.67,32794.34,24407.2
1133267.845,-4075.62,20653.73,9393.55,36173.11,32719.04,24347.21
1133267.847,-4062.03,20639.95,9287.84,36173.01,32678.32,24317.51
1133267.849,-4044.49,20621.59,9151.84,36165.05,32609.09,24271.87
1133267.851,-4052.5,20653.68,9229.42,36183.55,32645.94,24304.25
1133267.853,-4061.32,20691.97,9369.42,36204.77,32713.61,24350.55
1133267.855,-4078.25,20713.81,9482.77,36210.83,32761.58,24383.98
1133267.857,-4096.94,20725.54,9576.51,36216.41,32813.17,24418.69
1133267.859,-4105.76,20708.71,9570.27,36206.3,32814.89,24418.31
1133267.861,-4091.64,20667.13,9437.28,36183.5,32746.84,24362.9
1133267.863,-4064.61,20646.86,9326.98,36176.73,32699.11,24325.76
1133267.865,-4046.39,20618.01,9173.82,36160.76,32621.82,24270.92
1133267.867,-4045.2,20639.23,9184.31,36179.36,32630.3,24287.47
1133267.869,-4060.13,20675.61,9317.45,36195.33,32689.67,24330.19
1133267.871,-4065.75,20706.56,9447.81,36207.87,32745.46,24371.96
1133267.873,-4081.3,20720.77,9551.19,36217.22,32798.01,24411.54
1133267.875,-4091.12,20717.34,9602.69,36217.74,32831.86,24436.14
1133267.877,-4080.15,20681.05,9493.4,36198.38,32779.6,24388.51
1133267.879,-4074.38,20652.15,9370.47,36183.08,32721.38,24339.15
1133267.881,-4061.17,20621.78,9224.03,36164.48,32648.66,24284.6
1133267.883,-4049.06,20616.63,9149.27,36163.91,32608.8,24263.1
1133267.885,-4056.22,20657.06,9268.33,36188.51,32667.12,24308.92
1133267.887,-4065.47,20691.83,9409.19,36209.64,32735.35,24359.85
1133267.889,-4093.6,20703.56,9506.13,36210.92,32775.6,24391.22
1133267.891,-4112.29,20708.94,9594.73,36209.87,32824.9,24424.56
1133267.893,-4102.28,20673.04,9515.67,36186.08,32786.56,24390.61
1133267.895,-4087.4,20642.09,9392.17,36172.35,32728.96,24346.31
1133267.897,-4077.96,20613.34,9264.47,36156.85,32666.93,24300.29
1133267.899,-4061.08,20597.03,9137.77,36150.65,32605.22,24261.1
1133267.901,-4059.36,20636.7,9213.88,36177.78,32643.75,24297.53
1133267.903,-4072.71,20674.33,9360.65,36195.95,32712.46,24346.26
1133267.905,-4088.5,20688.15,9462.07,36198.19,32752.47,24370.96
1133267.907,-4102.61,20709.99,9575.42,36209.87,32814.41,24417.74
1133267.909,-4104.52,20692.88,9563.54,36199.67,32812.07,24412.35
1133267.911,-4091.36,20657.3,9440.28,36177.21,32751.95,24364.14
1133267.913,-4072.14,20633.84,9323.65,36167.96,32698.68,24321.7
1133267.915,-4047.2,20614.05,9181.6,36162.57,32633.88,24280.69
1133267.917,-4061.03,20614.2,9163.62,36157.04,32617.48,24269.77
1133267.919,-4068.42,20658.83,9311.25,36182.07,32688.29,24323.66
1133267.921,-4074.05,20682.67,9427.74,36191.94,32738.02,24355.22
1133267.923,-4087.31,20702.7,9537.36,36206.15,32793.76,24395.75
1133267.925,-4099.8,20696.93,9582.57,36200.15,32822.33,24415.21
1133267.927,-4100.7,20647.91,9462.69,36167.05,32758.53,24366.43
1133267.929,-4079.68,20625.16,9346.01,36158.14,32703.4,24324.75
1133267.931,-4060.51,20607.04,9218.12,36150.08,32640.89,24276.78
1133267.933,-4054.26,20602.56,9138.87,36148.27,32598.69,24250.27
1133267.935,-4058.79,20653.39,9266.04,36181.98,32666.26,24307.44
1133267.937,-4071.71,20680.48,9394.07,36190.66,32718.61,24347.21
1133267.939,-4090.4,20697.07,9502.22,36197.0,32766.78,24377.35
1133267.941,-4107.29,20707.56,9598.54,36206.77,32826.57,24421.5
1133267.943,-4094.6,20679.38,9529.97,36192.09,32796.63,24395.99
1133267.945,-4082.35,20643.43,9397.56,36173.2,32730.82,24346.78
1133267.947,-4073.19,20615.87,9272.34,36158.66,32666.11,24295.29
1133267.949,-4049.02,20606.57,9155.37,36158.14,32611.61,24260.24
1133267.951,-4048.11,20649.39,9232.0,36186.46,32653.05,24298.72
1133267.953,-4066.42,20680.24,9366.75,36198.38,32713.46,24337.15
1133267.955,-4069.38,20706.61,9479.05,36213.31,32768.21,24375.97
1133267.957,-4076.43,20726.97,9598.26,36227.99,32835.92,24426.94
1133267.959,-4091.31,20698.07,9574.51,36208.63,32822.76,24410.82
1133267.961,-4087.31,20655.59,9445.1,36184.36,32756.67,24360.14
1133267.963,-4068.95,20634.03,9323.93,36178.4,32700.97,24318.94
1133267.965,-4049.4,20610.86,9188.84,36164.19,32634.07,24272.83
1133267.967,-4037.09,20631.6,9185.65,36178.88,32632.64,24282.46
1133267.969,-4058.79,20669.08,9326.65,36196.33,32695.63,24335.05
1133267.971,-4078.15,20693.59,9442.95,36203.96,32743.84,24368.24
1133267.973,-4088.74,20720.58,9562.87,36219.51,32809.5,24419.55
1133267.975,-4094.17,20713.33,9600.93,36217.03,32837.78,24436.29
1133267.977,-4087.78,20671.27,9490.01,36189.13,32780.13,24388.7
1133267.979,-4072.09,20641.62,9359.12,36173.25,32713.04,24337.1
1133267.981,-4058.89,20614.82,9233.62,36159.66,32653.76,24296.05
1133267.983,-4046.63,20608.33,9141.26,36157.04,32604.27,24266.44
1133267.985,-4046.77,20663.12,9279.3,36194.95,32681.42,24326.52
1133267.987,-4056.79,20693.88,9411.67,36210.4,32738.88,24368.1
1133267.989,-4082.63,20704.08,9513.52,36208.68,32781.37,24399.19
1133267.991,-4099.42,20709.85,9591.1,36209.21,32825.19,24426.65
1133267.993,-4107.86,20677.09,9527.59,36187.65,32794.72,24399.28
1133267.995,-4094.32,20641.47,9393.17,36169.53,32725.86,24345.31
1133267.997,-4079.44,20618.49,9281.06,36159.71,32671.22,24308.3
1133267.999,-4050.21,20603.37,9146.93,36151.6,32600.5,24266.96
1133268.001,-4050.16,20646.86,9231.0,36181.6,32648.47,24308.26
1133268.003,-4066.13,20676.04,9365.7,36193.66,32705.02,24346.59
1133268.005,-4085.92,20692.88,9478.38,36201.62,32755.19,24381.26
1133268.007,-4099.89,20704.22,9572.08,36209.16,32808.69,24420.36
1133268.009,-4097.75,20689.68,9571.98,36204.63,32817.42,24426.03
1133268.011,-4083.78,20651.01,9441.85,36182.84,32753.33,24375.97
1133268.013,-4072.91,20628.5,9331.75,36172.25,32702.31,24335.01
1133268.015,-4052.97,20602.04,9177.73,36157.42,32623.58,24278.45
1133268.017,-4042.77,20623.26,9179.64,36171.35,32626.2,24288.75
1133268.019,-4052.07,20666.27,9315.63,36195.33,32691.05,24341.01
1133268.021,-4075.62,20689.54,9439.99,36203.05,32744.17,24375.97
1133268.023,-4095.17,20699.03,9538.56,36205.44,32791.0,24407.29
1133268.025,-4090.6,20707.28,9598.69,36211.64,32830.48,24439.34
1133268.027,-4077.63,20675.28,9493.88,36194.57,32781.8,24402.24
1133268.029,-4072.52,20648.01,9372.28,36179.93,32724.1,24354.22
1133268.031,-4060.94,20608.0,9219.12,36149.7,32641.56,24289.42
1133268.033,-4050.02,20598.41,9137.25,36142.16,32595.26,24262.34
1133268.035,-4066.32,20638.99,9256.32,36167.82,32652.53,24303.96
1133268.037,-4085.92,20674.8,9395.93,36186.84,32717.95,24348.64
1133268.039,-4084.35,20698.36,9505.7,36202.91,32774.12,24389.56
1133268.041,-4092.88,20707.99,9600.83,36209.16,32827.33,24432.95
1133268.043,-4087.35,20670.56,9524.54,36185.65,32789.28,24398.23
1133268.045,-4066.61,20644.24,9402.66,36174.25,32733.73,24351.98
1133268.047,-4057.07,20621.59,9279.59,36163.05,32673.41,24308.97
1133268.049,-4046.73,20600.51,9147.79,36151.08,32604.36,24263.77
1133268.051,-4049.25,20632.65,9216.02,36168.87,32638.46,24291.61
1133268.053,-4064.13,20670.27,9362.51,36188.7,32705.12,24337.1
1133268.055,-4075.1,20695.36,9473.61,36201.29,32753.9,24373.11
1133268.057,-4080.49,20722.49,9592.01,36219.74,32825.28,24427.13
1133268.059,-4093.74,20689.3,9567.69,36193.47,32812.55,24410.35
1133268.061,-4081.3,20650.68,9441.9,36176.5,32753.19,24362.52
1133268.063,-4070.28,20621.49,9320.36,36159.62,32690.39,24313.41
1133268.065,-4058.7,20591.21,9174.01,36143.59,32613.71,24260.43
1133268.067,-4057.5,20606.47,9164.81,36154.18,32611.56,24265.91
1133268.069,-4071.09,20657.68,9316.16,36186.7,32688.19,24326.23
1133268.071,-4075.67,20686.77,9435.94,36200.72,32740.74,24365.9
1133268.073,-4087.78,20702.51,9539.7,36209.3,32797.05,24407.2
1133268.075,-4095.7,20702.32,9591.53,36210.11,32832.15,24432.95
1133268.077,-4086.64,20663.55,9482.67,36183.65,32776.26,24381.45
1133268.079,-4082.63,20631.17,9356.6,36168.15,32715.37,24335.67
1133268.081,-4072.76,20604.61,9222.13,36152.65,32647.71,24287.42
1133268.083,-4053.64,20601.94,9145.17,36154.18,32607.51,24265.01
1133268.085,-4053.31,20647.1,9263.33,36184.84,32670.41,24317.27
1133268.087,-4061.84,20680.24,9395.27,36198.0,32733.21,24359.56
1133268.089,-4074.48,20704.41,9506.85,36210.49,32785.13,24398.47
1133268.091,-4091.41,20714.14,9604.36,36218.7,32841.26,24438.57
1133268.093,-4089.02,20676.85,9529.5,36192.37,32802.01,24402.48
1133268.095,-4077.77,20640.18,9396.51,36170.2,32732.44,24348.17
1133268.097,-4072.29,20611.1,9269.62,36150.27,32663.16,24294.43
1133268.099,-4047.06,20595.27,9143.07,36140.06,32600.93,24251.75
1133268.101,-4044.68,20632.36,9211.02,36167.29,32638.08,24287.8
1133268.103,-4064.51,20663.84,9347.39,36180.93,32697.82,24328.47
1133268.105,-4066.85,20692.88,9464.17,36197.33,32752.47,24363.76
1133268.107,-4080.92,20713.19,9582.81,36209.87,32820.66,24411.82
1133268.109,-4083.97,20695.12,9566.5,36197.86,32816.32,24406.48
1133268.111,-4073.24,20657.35,9441.71,36176.26,32752.8,24359.28
1133268.113,-4065.7,20624.02,9313.87,36161.38,32688.76,24309.88
1133268.115,-4056.03,20594.03,9175.44,36144.79,32620.15,24259.71
1133268.117,-4054.02,20608.33,9159.09,36151.89,32610.99,24259.47
1133268.119,-4064.37,20655.44,9306.38,36180.74,32685.14,24317.55
1133268.121,-4072.52,20682.05,9427.21,36192.95,32735.83,24351.5
1133268.123,-4092.07,20697.69,9538.56,36200.43,32794.77,24395.47
1133268.125,-4104.9,20686.72,9575.13,36193.09,32817.99,24411.11
1133268.127,-4094.46,20654.35,9480.29,36174.78,32770.54,24375.01
1133268.129,-4073.86,20628.84,9355.83,36165.1,32709.75,24329.09
1133268.131,-4063.32,20597.03,9225.27,36147.17,32645.85,24283.22
1133268.133,-4056.03,20583.3,9126.81,36140.97,32592.73,24250.18
1133268.135,-4061.75,20632.79,9258.13,36175.68,32665.21,24312.4
1133268.137,-4068.14,20670.08,9393.6,36194.09,32729.06,24356.37
1133268.139,-4088.21,20681.86,9494.97,36193.8,32771.64,24384.07
1133268.141,-4103.14,20690.97,9575.99,36201.82,32818.23,24422.08
1133268.143,-4098.51,20661.4,9518.91,36185.6,32795.58,24403.15
1133268.145,-4083.06,20627.79,9385.35,36167.67,32730.39,24350.84
1133268.147,-4079.53,20603.33,9269.43,36152.56,32673.98,24302.15
1133268.149,-4060.84,20582.58,9129.72,36141.92,32601.79,24252.61
1133268.151,-4059.08,20621.02,9207.54,36166.77,32643.75,24291.47
1133268.153,-4068.47,20662.07,9351.3,36185.89,32707.84,24341.06
1133268.155,-4080.53,20688.54,9472.66,36199.81,32763.2,24380.11
1133268.157,-4080.58,20704.84,9573.41,36213.31,32820.94,24423.22
1133268.159,-4086.59,20685.82,9571.36,36201.15,32824.33,24419.26
1133268.161,-4088.21,20637.8,9433.7,36167.77,32750.9,24355.89
1133268.163,-4083.78,20605.76,9315.68,36147.98,32687.57,24307.3
1133268.165,-4069.71,20579.87,9165.0,36135.92,32612.09,24255.14
1133268.167,-4050.3,20605.28,9166.62,36157.04,32618.81,24269.35
1133268.169,-4049.59,20648.77,9302.43,36181.55,32686.52,24320.65
1133268.171,-4062.61,20677.62,9430.6,36193.14,32741.93,24358.9
1133268.173,-4080.49,20692.92,9537.32,36200.34,32795.29,24396.8
1133268.175,-4094.17,20690.59,9591.01,36200.86,32832.91,24423.32
1133268.177,-4092.12,20650.48,9481.96,36178.83,32779.51,24380.26
1133268.179,-4082.3,20618.54,9354.97,36156.32,32714.32,24325.18
1133268.181,-4054.98,20596.27,9216.83,36148.27,32653.53,24279.26
1133268.183,-4046.39,20588.83,9132.34,36145.69,32607.94,24252.85
1133268.185,-4053.59,20634.84,9254.84,36177.16,32672.36,24305.97
1133268.187,-4059.46,20670.94,9397.7,36199.81,32740.5,24355.84
1133268.189,-4076.53,20683.1,9494.35,36198.05,32777.69,24385.41
1133268.191,-4096.94,20690.25,9586.48,36195.76,32824.81,24421.31
1133268.193,-4093.7,20664.65,9523.25,36183.03,32801.3,24396.61
1133268.195,-4071.52,20637.8,9405.57,36176.64,32747.94,24356.61
1133268.197,-4062.37,20602.37,9275.1,36158.23,32682.04,24303.15
1133268.199,-4056.88,20581.34,9139.59,36143.02,32610.09,24254.85
1133268.201,-4057.12,20620.87,9207.97,36166.72,32644.23,24284.56
1133268.203,-4061.41,20664.46,9358.69,36190.32,32716.33,24335.1
1133268.205,-4080.49,20682.24,9462.07,36194.42,32759.34,24361.57
1133268.207,-4102.42,20700.89,9571.31,36203.91,32817.56,24407.96
1133268.209,-4096.08,20683.34,9565.78,36194.04,32820.28,24407.2
1133268.211,-4077.96,20641.0,9436.27,36172.2,32756.62,24354.79
1133268.213,-4066.37,20617.39,9318.97,36165.24,32703.83,24316.5
1133268.215,-4053.21,20592.98,9176.4,36152.8,32632.83,24268.92
1133268.217,-4045.2,20606.09,9163.52,36159.0,32624.3,24272.16
1133268.219,-4049.64,20653.87,9311.92,36189.27,32698.11,24327.71
1133268.221,-4057.22,20682.53,9435.18,36202.01,32751.23,24365.33
1133268.223,-4068.18,20703.84,9543.42,36213.97,32804.78,24404.58
1133268.225,-4081.68,20699.65,9597.49,36208.92,32837.63,24428.04
1133268.227,-4083.3,20656.02,9489.78,36185.56,32782.94,24385.03
1133268.229,-4081.54,20624.35,9362.13,36169.49,32723.14,24338.87
1133268.231,-4066.75,20593.36,9221.41,36151.89,32651.14,24286.42
1133268.233,-4043.29,20588.4,9140.06,36153.32,32610.32,24265.15
1133268.235,-4034.85,20650.44,9274.1,36196.28,32685.14,24327.61
1133268.237,-4057.98,20677.14,9400.56,36204.63,32738.59,24363.81
1133268.239,-4079.15,20688.39,9500.84,36200.91,32776.88,24387.51
1133268.241,-4101.13,20691.78,9594.39,36201.53,32829.34,24419.41
1133268.243,-4091.36,20677.86,9541.04,36199.72,32815.7,24406.48
1133268.245,-4083.25,20642.43,9410.57,36180.88,32752.14,24357.37
1133268.247,-4071.24,20611.67,9281.45,36163.48,32684.71,24306.25
1133268.249,-4053.69,20590.36,9153.89,36154.08,32624.06,24267.87
1133268.251,-4050.16,20625.36,9214.88,36174.73,32654.86,24294.57
1133268.253,-4058.79,20666.65,9360.7,36195.43,32720.76,24340.87
1133268.255,-4068.42,20688.77,9469.22,36205.96,32766.25,24377.54
1133268.257,-4085.11,20707.04,9584.24,36218.22,32831.63,24428.32
1133268.259,-4084.78,20689.44,9575.32,36203.67,32827.67,24419.69
1133268.261,-4078.1,20647.77,9449.53,36175.49,32762.58,24366.81
1133268.263,-4065.37,20623.11,9326.75,36165.77,32702.78,24319.84
1133268.265,-4053.83,20601.42,9190.75,36151.32,32634.41,24276.21
1133268.267,-4060.84,20614.72,9168.1,36163.1,32626.35,24277.64
1133268.269,-4068.8,20656.92,9314.87,36186.84,32698.06,24330.19
1133268.271,-4065.28,20681.0,9431.98,36196.86,32745.27,24362.42
1133268.273,-4073.91,20699.31,9547.71,36212.45,32809.02,24410.78
1133268.275,-4083.4,20697.83,9597.3,36211.45,32841.92,24433.04
1133268.277,-4078.58,20657.26,9492.45,36181.41,32786.37,24387.93
1133268.279,-4063.32,20630.36,9360.79,36168.01,32722.91,24338.96
1133268.281,-4051.16,20608.71,9242.06,36159.76,32668.74,24303.82
1133268.283,-4046.82,20595.79,9144.26,36152.18,32614.0,24271.78
1133268.285,-4066.8,20638.75,9265.57,36175.45,32672.6,24313.12
1133268.287,-4080.01,20671.56,9395.98,36191.04,32729.68,24350.26
1133268.289,-4090.93,20690.59,9503.75,36199.24,32782.7,24386.17
1133268.291,-4084.87,20706.66,9592.44,36208.97,32837.2,24426.22
1133268.293,-4079.91,20674.8,9533.12,36189.75,32813.89,24406.05
1133268.295,-4070.04,20637.51,9394.93,36171.87,32745.37,24349.84
1133268.297,-4051.54,20618.39,9289.55,36166.62,32697.82,24315.12
1133268.299,-4032.42,20591.31,9143.88,36153.13,32619.43,24265.34
1133268.301,-4043.91,20624.26,9211.02,36173.06,32651.05,24297.0
1133268.303,-4059.03,20662.41,9351.49,36193.42,32717.52,24345.21
1133268.305,-4067.76,20687.15,9472.66,36204.29,32771.54,24386.31
1133268.307,-4087.83,20696.21,9566.02,36205.3,32814.94,24417.83
1133268.309,-4093.31,20684.44,9570.03,36196.9,32825.04,24421.65
1133268.311,-4083.01,20643.71,9439.18,36171.25,32757.95,24365.71
1133268.313,-4069.52,20622.69,9327.46,36165.15,32707.12,24329.57
1133268.315,-4053.16,20589.74,9173.16,36145.17,32626.06,24273.02
1133268.317,-4048.49,20605.61,9168.44,36160.33,32626.06,24281.5
1133268.319,-4067.23,20643.9,9298.47,36180.79,32685.9,24323.13
1133268.321,-4074.53,20680.24,9432.13,36201.67,32748.85,24368.48
1133268.323,-4085.64,20703.03,9542.66,36212.02,32803.06,24408.96
1133268.325,-4092.41,20695.64,9593.77,36204.29,32831.86,24429.18
1133268.327,-4072.52,20655.78,9487.39,36181.98,32778.22,24388.13
1133268.329,-4062.8,20624.31,9366.32,36170.06,32721.19,24340.54
1133268.331,-4051.4,20597.03,9225.18,36157.09,32655.72,24289.13
1133268.333,-4039.29,20598.6,9142.83,36161.9,32616.52,24269.06
1133268.335,-4038.53,20649.58,9266.33,36194.85,32684.28,24325.56
1133268.337,-4060.98,20678.71,9401.37,36208.11,32742.55,24366.19
1133268.339,-4105.14,20677.43,9484.29,36195.52,32765.87,24374.68
1133268.3409,-4110.29,20697.12,9590.87,36211.3,32831.05,24427.46
1133268.3429,-4101.56,20669.08,9532.5,36199.0,32809.21,24410.35
1133268.3449,-4084.49,20637.8,9404.95,36182.31,32747.08,24362.66
1133268.3469,-4067.37,20610.72,9277.73,36164.91,32681.09,24308.21
1133268.3489,-4044.63,20589.12,9141.45,36151.08,32606.94,24256.66
1133268.3509,-4046.49,20621.68,9205.39,36172.78,32637.65,24287.04
1133268.3529,-4062.56,20662.74,9353.4,36195.33,32708.98,24336.82
1133268.3549,-4078.39,20684.24,9459.16,36202.86,32757.0,24366.14
1133268.3569,-4101.09,20700.79,9569.79,36214.17,32818.42,24409.68
1133268.3589,-4096.94,20684.72,9566.79,36206.49,32824.66,24414.59
1133268.3609,-4073.81,20654.97,9450.63,36191.8,32769.45,24374.96
1133268.3629,-4060.08,20631.36,9327.98,36178.02,32714.23,24329.38
1133268.3649,-4052.73,20604.37,9178.83,36161.38,32638.6,24271.59
1133268.3669,-4047.01,20620.49,9169.39,36174.21,32632.59,24272.59
1133268.3689,-4055.36,20666.79,9315.16,36202.72,32703.17,24328.76
1133268.3709,-4072.62,20684.82,9429.74,36206.92,32749.85,24360.47
1133268.3729,-4086.69,20703.46,9536.27,36212.83,32800.58,24401.57
1133268.3749,-4096.22,20705.18,9592.96,36212.64,32834.72,24426.13
1133268.3769,-4083.35,20670.23,9492.06,36194.14,32784.51,24388.27
1133268.3789,-4073.24,20638.18,9368.37,36178.74,32724.81,24341.78
1133268.3809,-4062.18,20607.19,9227.28,36159.95,32654.72,24288.28
1133268.3829,-4047.63,20600.51,9141.35,36159.71,32609.71,24263.96
1133268.3849,-4057.22,20643.67,9255.7,36187.84,32667.64,24311.5
1133268.3869,-4064.99,20679.81,9389.59,36202.91,32728.44,24353.98
1133268.3889,-4075.77,20699.22,9495.4,36210.97,32777.98,24390.03
1133268.3909,-4098.03,20706.56,9593.92,36216.02,32836.73,24430.42
1133268.3929,-4102.8,20675.33,9527.02,36196.52,32803.44,24401.86
1133268.3949,-4095.46,20635.56,9394.79,36173.44,32736.31,24348.17
1133268.3969,-4069.71,20613.53,9276.11,36168.15,32684.66,24309.88
1133268.3989,-4047.39,20591.79,9149.7,36157.76,32622.63,24269.77
1133268.4009,-4051.02,20622.07,9202.53,36176.02,32648.38,24294.76
1133268.4029,-4073.38,20656.97,9342.72,36193.61,32709.89,24339.49
1133268.4049,-4081.63,20680.62,9453.35,36203.58,32756.71,24375.06
1133268.4069,-4087.5,20706.47,9573.84,36220.7,32829.86,24431.28
1133268.4089,-4084.02,20696.83,9575.56,36218.36,32840.3,24438.57
1133268.4109,-4087.97,20649.77,9444.19,36189.13,32767.35,24379.69
1133268.4129,-4080.63,20618.82,9313.54,36171.92,32700.73,24328.62
1133268.4149,-4061.94,20585.97,9172.35,36152.03,32627.97,24278.45
1133268.4169,-4046.54,20606.19,9158.66,36167.44,32623.01,24283.94
1133268.4189,-4057.74,20656.4,9308.96,36199.0,32701.5,24346.31
1133268.4209,-4068.66,20689.2,9431.36,36217.22,32759.29,24386.6
1133268.4229,-4088.07,20703.32,9542.28,36223.18,32813.7,24427.75
1133268.4249,-4098.51,20702.13,9593.39,36221.94,32842.54,24445.11
1133268.4269,-4096.46,20662.74,9490.78,36194.66,32790.52,24401.14
1133268.4289,-4082.06,20628.6,9354.26,36173.3,32718.33,24344.64
1133268.4309,-4067.18,20594.84,9223.08,36151.7,32653.38,24294.05
1133268.4329,-4049.44,20585.49,9124.71,36149.65,32603.84,24262.15
1133268.4349,-4053.07,20639.76,9256.17,36186.75,32676.22,24321.23
1133268.4369,-4068.33,20669.61,9387.3,36200.48,32733.64,24360.23
1133268.4389,-4084.68,20692.3,9500.79,36211.92,32786.09,24399.47
1133268.4409,-4101.47,20696.36,9580.66,36213.4,32829.96,24433.09
1133268.4429,-4100.85,20667.46,9524.44,36195.33,32805.54,24410.87
1133268.4449,-4081.25,20638.95,9396.74,36181.12,32740.74,24362.23
1133268.4469,-4076.34,20611.05,9284.64,36164.38,32682.57,24319.41
1133268.4489,-4053.64,20589.97,9141.97,36152.75,32610.71,24267.1
1133268.4509,-4046.77,20625.31,9204.87,36172.78,32643.56,24296.91
1133268.4529,-4060.55,20660.45,9341.0,36189.27,32706.31,24339.82
1133268.4549,-4090.74,20679.09,9451.53,36194.23,32753.52,24368.96
1133268.4569,-4111.39,20691.83,9547.28,36202.63,32803.78,24407.1
1133268.4589,-4102.85,20678.57,9555.34,36194.71,32814.89,24413.45
1133268.4609,-4083.01,20639.85,9432.46,36172.87,32753.09,24362.47
1133268.4629,-4065.18,20618.87,9323.22,36167.2,32703.93,24323.7
1133268.4649,-4049.16,20589.26,9172.54,36154.04,32629.21,24272.73
1133268.4669,-4048.63,20606.38,9162.09,36167.63,32626.06,24280.5
1133268.4689,-4057.55,20651.49,9296.23,36193.66,32691.72,24331.91
1133268.4709,-4061.75,20686.68,9430.5,36212.73,32755.09,24376.44
1133268.4729,-4074.34,20703.32,9539.22,36220.94,32809.02,24413.73
1133268.4749,-4084.44,20702.84,9598.02,36219.74,32843.21,24436.14
1133268.4769,-4071.71,20669.99,9496.31,36202.15,32793.95,24396.71
1133268.4789,-4068.33,20640.9,9376.43,36187.08,32734.3,24352.7
1133268.4809,-4062.56,20608.9,9233.29,36167.67,32661.73,24294.67
1133268.4829,-4048.4,20605.61,9145.79,36167.44,32618.91,24271.3
1133268.4849,-4049.83,20653.92,9265.57,36197.24,32680.66,24321.51
1133268.4869,-4063.89,20684.2,9399.56,36210.21,32738.88,24362.04
1133268.4889,-4075.24,20696.55,9498.03,36212.59,32778.6,24391.32
1133268.4909,-4084.4,20709.23,9596.68,36220.41,32836.73,24436.67
1133268.4929,-4083.63,20675.76,9533.6,36199.62,32807.74,24411.25
1133268.4949,-4080.15,20634.84,9398.94,36172.92,32734.78,24354.37
1133268.4969,-4072.71,20605.38,9273.86,36153.75,32667.83,24301.67
1133268.4989,-4053.64,20587.4,9139.97,36148.36,32601.65,24260.0
1133268.5009,-4050.3,20621.35,9201.19,36171.54,32637.55,24293.85
1133268.5029,-4064.04,20660.93,9346.63,36193.71,32708.41,24344.97
1133268.5049,-4073.76,20681.62,9456.06,36204.2,32756.52,24378.92
1133268.5069,-4087.11,20706.08,9572.03,36220.6,32821.61,24430.71
1133268.5089,-4094.22,20690.59,9573.6,36207.63,32824.62,24432.42
1133268.5109,-4075.62,20647.19,9446.0,36177.45,32755.52,24378.68
1133268.5129,-4062.51,20614.67,9322.79,36160.81,32694.15,24329.71
1133268.5149,-4043.29,20592.26,9183.12,36151.75,32625.35,24282.32
1133268.5169,-4035.28,20614.05,9170.96,36169.87,32623.01,24286.27
1133268.5189,-4052.02,20657.88,9312.06,36197.33,32693.29,24339.58
1133268.5209,-4070.47,20678.19,9429.69,36202.24,32742.79,24369.43
1133268.5229,-4084.4,20694.69,9531.88,36207.49,32789.28,24402.05
1133268.5249,-4095.65,20692.59,9593.11,36206.2,32827.57,24430.23
1133268.5269,-4086.69,20654.06,9489.87,36183.93,32777.69,24390.27
1133268.5289,-4078.34,20624.78,9366.13,36170.34,32718.09,24343.54
1133268.5309,-4064.37,20598.18,9228.14,36154.61,32650.43,24294.19
1133268.5329,-4049.35,20589.07,9134.96,36147.17,32601.17,24261.05
1133268.5349,-4057.5,20634.27,9251.26,36172.97,32659.82,24310.73
1133268.5369,-4065.7,20673.37,9390.16,36194.71,32725.86,24361.9
1133268.5389,-4072.48,20693.78,9498.41,36207.3,32776.31,24398.04
1133268.5409,-4098.89,20696.36,9591.91,36205.82,32828.95,24433.33
1133268.5429,-4104.04,20661.59,9526.83,36180.6,32794.0,24401.67
1133268.5449,-4082.73,20633.08,9403.04,36168.01,32736.11,24357.46
1133268.5469,-4071.95,20603.09,9270.24,36149.22,32669.31,24304.44
1133268.5489,-4052.16,20583.25,9141.49,36140.4,32606.75,24263.62
1133268.5509,-4055.88,20613.53,9194.47,36162.95,32634.93,24292.09
1133268.5529,-4065.7,20654.92,9344.01,36186.56,32705.22,24344.02
1133268.5549,-4064.89,20684.77,9459.12,36201.43,32759.0,24383.26
1133268.5569,-4075.38,20706.89,9580.8,36220.13,32831.72,24439.72
1133268.5589,-4081.68,20685.87,9574.84,36204.77,32827.76,24432.95
1133268.5609,-4075.34,20645.95,9449.44,36180.74,32764.01,24379.07
1133268.5629,-4061.03,20619.82,9323.79,36169.77,32704.26,24329.52
1133268.5649,-4056.26,20583.68,9181.07,36145.93,32629.35,24275.35
1133268.5669,-4053.07,20598.46,9156.75,36157.56,32616.81,24273.49
1133268.5689,-4061.65,20645.48,9304.81,36185.89,32690.0,24328.43
1133268.5709,-4070.14,20667.75,9422.02,36195.19,32738.12,24361.14
1133268.5729,-4078.44,20691.64,9539.18,36210.02,32798.34,24409.49
1133268.5749,-4087.07,20688.58,9587.34,36202.91,32827.57,24427.66
1133268.5769,-4082.11,20653.01,9492.83,36179.74,32779.22,24387.03
1133268.5789,-4068.71,20619.2,9356.45,36161.14,32709.75,24330.57
1133268.5809,-4054.26,20597.98,9237.58,36151.13,32652.43,24287.85
1133268.5829,-4039.72,20592.02,9136.15,36149.7,32599.93,24255.61
1133268.5849,-4048.73,20637.8,9260.27,36179.69,32664.21,24306.2
1133268.5869,-4059.41,20672.23,9393.84,36195.47,32723.1,24347.21
1133268.5889,-4071.14,20689.87,9502.79,36203.05,32771.5,24386.6
1133268.5909,-4093.89,20692.11,9583.43,36203.29,32817.42,24418.5
1133268.5929,-4106.71,20662.07,9530.93,36184.08,32795.62,24397.42
1133268.5949,-4085.11,20630.65,9395.79,36164.81,32725.96,24342.49
1133268.5969,-4059.08,20615.01,9293.27,36161.33,32678.04,24307.78
1133268.5989,-4043.29,20587.49,9146.74,36147.84,32601.84,24257.57
1133268.6009,-4047.01,20619.68,9209.16,36167.82,32635.88,24285.37
1133268.6029,-4060.08,20654.54,9346.77,36184.74,32700.78,24326.28
1133268.6049,-4073.29,20672.75,9460.4,36193.57,32752.18,24361.9
1133268.6069,-4085.64,20683.91,9555.25,36196.76,32798.87,24398.14
1133268.6089,-4089.02,20674.99,9568.69,36192.95,32812.41,24410.3
1133268.6109,-4076.48,20635.89,9443.52,36173.25,32752.57,24363.62
1133268.6129,-4073.14,20610.1,9324.55,36157.18,32694.01,24315.17
1133268.6149,-4063.89,20576.57,9168.63,36136.54,32614.52,24256.28
1133268.6169,-4051.69,20600.61,9160.57,36160.62,32621.1,24272.3
1133268.6189,-4050.35,20652.01,9302.81,36196.19,32695.82,24333.29
1133268.6209,-4063.85,20679.43,9429.6,36207.11,32749.94,24370.1
1133268.6229,-4079.96,20691.92,9531.17,36207.11,32796.2,24401.48
1133268.6249,-4094.55,20687.11,9585.76,36198.67,32826.86,24420.74
1133268.6269,-4087.64,20646.15,9481.24,36173.44,32771.26,24378.64
1133268.6289,-4073.1,20622.26,9368.47,36163.86,32718.09,24339.11
1133268.6309,-4058.89,20592.6,9228.52,36143.45,32645.32,24285.03
1133268.6329,-4052.5,20578.72,9130.19,36139.87,32594.97,24251.42
1133268.6349,-4067.18,20620.16,9241.68,36168.77,32653.91,24295.0
1133268.6369,-4072.62,20656.3,9383.11,36188.27,32720.76,24343.11
1133268.6389,-4078.48,20680.14,9489.39,36197.71,32768.4,24375.25
1133268.6409,-4089.69,20696.98,9592.58,36207.16,32827.33,24423.22
1133268.6429,-4098.18,20656.4,9525.11,36180.45,32792.76,24391.84
1133268.6449,-4094.32,20617.44,9394.17,36158.9,32726.2,24336.87
1133268.6469,-4076.24,20599.46,9278.01,36150.41,32671.88,24296.0
1133268.6489,-4049.35,20577.53,9142.11,36141.64,32602.93,24252.56
1133268.6509,-4043.63,20609.76,9199.05,36166.72,32633.59,24286.13
1133268.6529,-4045.34,20660.83,9351.68,36194.81,32709.17,24341.54
1133268.6549,-4067.66,20679.91,9457.92,36196.62,32752.04,24368.1
1133268.6569,-4088.26,20700.93,9569.84,36208.54,32811.36,24412.16
1133268.6589,-4085.26,20682.15,9571.12,36196.09,32819.18,24415.64
1133268.6609,-4069.9,20637.18,9441.81,36168.48,32751.23,24363.43
1133268.6629,-4064.99,20606.57,9317.83,36152.46,32687.86,24316.36
1133268.6649,-4046.25,20580.72,9175.92,36140.11,32616.33,24269.49
1133268.6669,-4039.34,20597.36,9159.09,36152.99,32607.99,24273.92
1133268.6689,-4056.55,20646.05,9301.95,36182.55,32680.9,24330.09
1133268.6709,-4072.76,20672.37,9426.26,36193.8,32734.83,24364.43
1133268.6729,-4085.11,20695.16,9534.03,36206.44,32788.95,24405.34
1133268.6749,-4096.46,20692.64,9592.58,36200.53,32824.95,24430.95
1133268.6769,-4081.82,20659.12,9494.93,36181.03,32777.27,24395.99
1133268.6789,-4059.32,20633.7,9376.43,36174.25,32723.91,24353.84
1133268.6809,-4048.78,20593.5,9232.62,36147.88,32645.28,24296.14
1133268.6829,-4052.26,20572.71,9128.52,36131.05,32583.77,24255.33
1133268.6849,-4053.21,20620.73,9241.25,36164.19,32646.18,24306.25
1133268.6869,-4056.93,20657.45,9379.2,36181.41,32708.46,24347.98
1133268.6889,-4069.61,20673.52,9482.29,36184.94,32753.38,24377.25
1133268.6909,-4088.16,20684.15,9583.67,36191.52,32813.51,24421.55
1133268.6929,-4091.07,20651.01,9521.49,36174.87,32783.94,24399.24
1133268.6949,-4083.92,20614.44,9394.5,36156.32,32723.76,24351.12
1133268.6969,-4066.66,20592.98,9272.48,36143.21,32662.87,24305.78
1133268.6989,-4055.98,20570.23,9140.64,36127.38,32592.35,24259.09
1133268.7009,-4064.04,20598.94,9186.94,36144.12,32615.95,24279.74
1133268.7029,-4082.25,20633.27,9329.46,36159.28,32679.04,24325.8
1133268.7049,-4090.79,20653.06,9439.71,36170.15,32725.43,24360.85
1133268.7069,-4101.8,20671.13,9553.48,36178.55,32789.42,24408.06
1133268.7089,-4098.7,20654.49,9550.43,36167.82,32793.48,24406.1
1133268.7109,-4084.73,20618.39,9431.03,36144.74,32732.73,24354.41
1133268.7129,-4081.68,20589.35,9305.0,36130.81,32668.93,24303.87
1133268.7149,-4076.0,20566.23,9173.82,36120.47,32605.89,24261.76
1133268.7169,-4065.61,20585.06,9150.55,36139.35,32597.45,24261.33
1133268.7189,-4063.85,20629.5,9294.03,36164.57,32668.69,24315.93
1133268.7209,-4076.77,20646.67,9404.14,36165.77,32710.6,24338.39
1133268.7229,-4095.36,20662.17,9516.67,36175.59,32768.3,24378.64
1133268.7249,-4096.56,20675.23,9582.23,36192.23,32815.51,24414.73
1133268.7269,-4093.22,20638.52,9485.96,36169.01,32769.02,24375.58
1133268.7289,-4081.82,20599.65,9346.44,36142.97,32694.82,24314.64
1133268.7309,-4062.99,20582.11,9232.67,36134.68,32641.08,24277.64
1133268.7329,-4043.67,20577.43,9136.77,36136.92,32595.3,24256.14
1133268.7349,-4057.55,20616.39,9250.59,36158.14,32651.86,24303.49
1133268.7369,-4081.96,20645.67,9377.34,36169.49,32706.65,24338.68
1133268.7389,-4088.02,20673.28,9492.54,36184.6,32764.3,24381.26
1133268.7409,-4088.26,20685.48,9582.09,36195.71,32819.18,24422.6
1133268.7429,-4088.74,20653.2,9530.93,36177.21,32796.15,24401.48
1133268.7449,-4078.34,20614.05,9395.12,36156.04,32729.77,24348.83
1133268.7469,-4072.67,20599.03,9292.79,36151.7,32682.95,24312.07
1133268.7489,-4060.7,20568.52,9144.74,36133.48,32602.31,24254.8
1133268.7509,-4057.6,20601.47,9202.05,36155.66,32634.79,24285.75
1133268.7529,-4070.57,20640.52,9342.15,36174.83,32700.11,24334.58
1133268.7549,-4078.34,20668.22,9466.03,36190.66,32758.72,24376.78
1133268.7569,-4093.6,20684.05,9562.45,36200.91,32812.07,24414.3
1133268.7589,-4097.22,20673.52,9574.94,36192.66,32822.23,24422.12
1133268.7609,-4099.42,20621.49,9439.52,36157.95,32749.94,24360.04
1133268.7629,-4087.54,20600.13,9330.99,36151.13,32700.88,24323.18
1133268.7649,-4068.18,20572.14,9182.69,36132.39,32623.49,24269.44
1133268.7669,-4061.75,20589.74,9166.86,36146.45,32618.0,24272.21
1133268.7689,-4071.09,20629.93,9299.57,36170.53,32684.04,24320.22
1133268.7709,-4078.96,20650.82,9416.96,36174.68,32729.68,24349.74
1133268.7729,-4092.79,20666.03,9522.58,36186.03,32781.41,24389.94
1133268.7749,-4097.22,20675.71,9597.02,36196.62,32832.24,24433.43
1133268.7769,-4084.78,20642.62,9499.03,36176.11,32784.7,24392.94
1133268.7789,-4069.85,20620.06,9383.35,36166.0,32729.2,24353.41
1133268.7809,-4063.42,20585.59,9244.73,36144.07,32653.76,24299.53
1133268.7829,-4044.44,20579.72,9150.89,36142.54,32609.61,24275.93
1133268.7849,-4047.06,20623.26,9261.37,36167.77,32665.11,24317.7
1133268.7869,-4061.46,20655.44,9397.89,36185.17,32726.67,24358.7
1133268.7889,-4081.73,20668.22,9494.83,36183.89,32768.68,24383.69
1133268.7909,-4093.55,20682.58,9594.63,36191.75,32824.62,24428.08
1133268.7929,-4087.93,20658.02,9544.71,36177.88,32801.58,24405.96
1133268.7949,-4078.44,20622.78,9415.82,36155.66,32738.64,24353.79
1133268.7969,-4071.52,20589.93,9289.89,36132.05,32671.74,24297.86
1133268.7989,-4057.84,20571.28,9157.99,36121.94,32604.08,24255.56
1133268.8009,-4061.08,20600.99,9210.4,36143.83,32630.64,24283.75
1133268.8029,-4071.28,20638.9,9348.78,36165.19,32697.63,24334.0
1133268.8049,-4083.59,20657.21,9456.35,36175.78,32750.52,24367.91
1133268.8069,-4096.84,20676.09,9565.59,36185.32,32806.64,24410.39
1133268.8089,-4094.41,20665.74,9577.47,36178.26,32817.94,24418.4
1133268.8109,-4086.83,20629.03,9456.68,36157.09,32757.48,24372.53
1133268.8129,-4083.92,20597.84,9337.62,36138.16,32694.01,24320.89
1133268.8149,-4069.71,20567.8,9193.8,36122.95,32620.48,24265.91
1133268.8169,-4059.98,20577.62,9171.87,36134.15,32610.66,24266.15
1133268.8189,-4059.36,20627.88,9312.82,36166.62,32685.9,24325.28
1133268.8209,-4073.29,20647.86,9425.93,36170.44,32733.16,24356.42
1133268.8229,-4081.06,20666.55,9526.97,36180.88,32781.27,24392.32
1133268.8249,-4092.36,20675.38,9599.78,36187.46,32829.48,24425.89
1133268.8269,-4098.18,20629.17,9494.83,36157.18,32772.59,24379.54
1133268.8289,-4079.44,20605.71,9379.86,36146.74,32717.04,24336.72
1133268.8309,-4051.07,20590.93,9260.04,36141.07,32657.72,24298.19
1133268.8329,-4049.49,20572.81,9162.09,36131.2,32603.41,24267.49
1133268.8349,-4070.47,20605.52,9257.7,36149.12,32649.23,24303.3
1133268.8369,-4086.73,20642.19,9392.55,36167.72,32714.42,24348.4
1133268.8389,-4094.17,20659.59,9492.68,36176.4,32759.62,24381.64
1133268.8409,-4110.05,20667.03,9593.44,36179.12,32815.41,24422.7
1133268.8429,-4104.09,20643.14,9541.18,36162.38,32792.62,24402.29
1133268.8449,-4085.88,20618.77,9427.17,36155.61,32743.31,24365.9
1133268.8469,-4072.43,20590.21,9306.1,36141.02,32679.47,24318.22
1133268.8489,-4059.27,20560.98,9171.77,36120.99,32608.8,24269.87
1133268.8509,-4049.83,20597.94,9223.08,36149.17,32638.32,24297.96
1133268.8529,-4067.37,20638.33,9362.94,36171.11,32704.4,24347.02
1133268.8549,-4092.65,20649.48,9456.21,36169.34,32740.02,24366.38
1133268.8569,-4101.99,20675.76,9576.94,36187.94,32810.41,24413.97
1133268.8589,-4095.94,20669.75,9589.77,36187.46,32825.76,24421.79
1133268.8609,-4077.24,20633.32,9475.9,36159.19,32764.49,24374.2
1133268.8629,-4072.71,20596.98,9343.1,36140.49,32696.2,24318.55
1133268.8649,-4073.62,20569.28,9209.35,36124.76,32629.83,24273.68
1133268.8669,-4063.8,20580.68,9178.69,36137.06,32617.38,24273.73
1133268.8689,-4063.99,20624.93,9321.79,36168.15,32690.91,24332.43
1133268.8709,-4075.0,20648.67,9432.98,36178.07,32740.74,24364.14
1133268.8729,-4095.7,20666.94,9541.04,36183.84,32793.38,24404.05
1133268.8749,-4103.52,20668.7,9597.83,36182.22,32826.38,24426.84
1133268.8769,-4093.5,20639.09,9510.28,36165.34,32785.85,24395.33
1133268.8789,-4076.0,20612.19,9383.87,36155.28,32726.1,24349.69
1133268.8809,-4066.42,20585.35,9265.81,36138.87,32666.73,24301.87
1133268.8829,-4058.41,20564.27,9154.94,36124.42,32599.69,24255.47
1133268.8849,-4067.76,20608.48,9266.47,36152.75,32658.39,24305.92
1133268.8869,-4075.29,20644.91,9397.22,36174.68,32721.28,24353.7
1133268.8889,-4091.55,20662.5,9502.32,36183.74,32772.78,24390.46
1133268.8909,-4106.33,20671.27,9588.81,36187.08,32821.52,24425.41
1133268.8929,-4097.75,20652.25,9550.76,36178.31,32808.74,24413.78
1133268.8949,-4080.01,20618.87,9419.11,36161.57,32744.51,24360.14
1133268.8969,-4078.34,20597.36,9313.44,36146.93,32691.43,24315.17
1133268.8989,-4054.98,20577.05,9174.63,36133.96,32617.91,24268.68
1133268.9009,-4052.93,20603.23,9221.13,36148.55,32636.31,24286.46
1133268.9029,-4059.6,20641.23,9355.74,36170.87,32703.02,24333.53
1133268.9049,-4064.27,20669.89,9473.28,36189.99,32762.87,24379.88
1133268.9069,-4085.21,20678.24,9562.16,36192.33,32808.36,24412.06
1133268.9089,-4099.66,20660.78,9572.46,36182.55,32815.94,24415.26
1133268.9109,-4081.11,20628.6,9457.49,36165.77,32757.0,24373.44
1133268.9129,-4059.6,20611.19,9352.21,36155.75,32707.5,24332.38
1133268.9149,-4044.44,20577.48,9202.86,36134.63,32629.64,24274.64
1133268.9169,-4036.38,20591.93,9178.78,36146.03,32620.1,24276.12
1133268.9189,-4053.74,20627.41,9301.9,36166.29,32680.75,24319.46
1133268.9209,-4061.41,20661.79,9428.12,36185.79,32743.74,24366.43
1133268.9229,-4069.9,20685.06,9536.17,36201.58,32802.68,24413.73
1133268.9249,-4088.83,20680.72,9597.92,36197.71,32837.59,24439.19
1133268.9269,-4087.35,20639.8,9499.5,36169.1,32783.46,24391.61
1133268.9289,-4088.12,20611.53,9380.06,36154.32,32722.76,24342.11
1133268.9309,-4079.72,20586.45,9252.88,36140.88,32659.3,24295.95
1133268.9329,-4059.03,20576.05,9155.08,36138.4,32615.62,24271.01
1133268.9349,-4056.07,20616.72,9257.03,36166.62,32672.79,24318.03
1133268.9369,-4074.05,20643.76,9382.82,36177.35,32726.01,24356.42
1133268.9389,-4088.16,20656.06,9474.95,36180.64,32764.1,24384.55
1133268.9409,-4095.51,20675.9,9583.38,36196.95,32825.24,24434.66
1133268.9429,-4103.71,20646.43,9528.83,36173.63,32796.91,24408.96
1133268.9449,-4094.08,20609.19,9402.8,36152.99,32735.64,24359.42
1133268.9469,-4070.43,20591.88,9296.08,36148.27,32687.24,24325.76
1133268.9489,-4048.78,20575.91,9168.53,36141.59,32623.2,24283.79
1133268.9509,-4051.97,20602.85,9213.35,36160.14,32643.27,24300.82
1133268.9529,-4072.0,20636.94,9347.15,36177.59,32706.69,24346.02
1133268.9549,-4087.93,20658.83,9449.53,36186.41,32756.28,24383.93
1133268.9569,-4102.52,20680.67,9562.59,36200.81,32815.41,24432.19
1133268.9589,-4107.09,20661.21,9571.79,36183.41,32816.18,24428.51
1133268.9609,-4088.21,20625.5,9453.58,36163.57,32753.76,24375.44
1133268.9629,-4070.81,20598.8,9335.9,36149.51,32698.02,24326.52
1133268.9649,-4058.08,20571.85,9196.23,36137.3,32631.83,24281.27
1133268.9669,-4053.21,20587.88,9175.02,36154.75,32626.06,24291.57
1133268.9689,-4070.95,20630.55,9306.67,36181.98,32692.96,24343.3
1133268.9709,-4091.69,20650.53,9413.77,36185.32,32735.88,24374.11
1133268.9729,-4101.37,20668.8,9512.09,36194.61,32783.94,24410.2
1133268.9749,-4109.38,20672.71,9581.95,36196.38,32827.0,24441.34
1133268.9769,-4100.7,20633.94,9481.57,36171.68,32776.88,24397.57
1133268.9789,-4089.36,20602.9,9362.41,36155.8,32717.42,24348.12
1133268.9809,-4070.43,20582.63,9242.35,36146.93,32656.44,24305.06
1133268.9829,-4048.78,20580.29,9155.47,36149.17,32616.67,24283.84
1133268.9849,-4064.27,20613.39,9245.06,36164.86,32659.34,24316.22
1133268.9869,-4083.01,20640.71,9368.13,36176.83,32714.9,24355.56
1133268.9889,-4090.6,20665.55,9472.51,36192.33,32765.11,24388.46
1133268.9909,-4101.61,20684.01,9587.77,36210.64,32832.48,24437.57
1133268.9929,-4110.15,20653.2,9532.21,36188.85,32802.16,24410.78
1133268.9949,-4084.4,20631.03,9420.68,36177.11,32749.51,24370.96
1133268.9969,-4060.65,20610.29,9307.58,36166.2,32695.96,24330.05
1133268.9989,-4048.3,20588.59,9180.02,36156.13,32632.35,24288.61
1133269.0009,-4059.98,20613.01,9216.74,36172.82,32649.76,24306.06
1133269.0029,-4077.72,20646.05,9345.58,36187.37,32709.51,24351.65
1133269.0049,-4084.44,20667.6,9445.62,36197.71,32755.33,24385.36
1133269.0069,-4100.75,20682.96,9561.25,36206.44,32815.65,24432.57
1133269.0089,-4103.71,20666.65,9562.11,36187.94,32814.79,24427.94
1133269.0109,-4090.69,20627.88,9447.19,36162.48,32754.81,24380.35
1133269.0129,-4080.82,20590.93,9320.45,36142.54,32685.43,24330.19
1133269.0149,-4072.29,20566.66,9196.28,36131.29,32625.49,24292.71
1133269.0169,-4060.13,20585.92,9167.86,36149.32,32618.72,24295.48
1133269.0189,-4065.28,20635.66,9311.3,36181.17,32696.54,24354.37
1133269.0209,-4079.63,20651.39,9413.53,36186.03,32739.64,24383.26
1133269.0229,-4090.4,20675.52,9526.16,36199.76,32798.25,24431.04
1133269.0249,-4094.27,20684.44,9594.58,36205.49,32839.73,24460.27
1133269.0269,-4098.65,20643.76,9503.27,36177.31,32789.81,24414.11
1133269.0289,-4089.02,20616.77,9378.96,36164.57,32726.34,24363.43
1133269.0309,-4077.48,20596.32,9269.24,36153.51,32674.51,24324.42
1133269.0329,-4067.71,20572.81,9155.27,36138.3,32612.52,24280.5
1133269.0349,-4074.14,20614.29,9263.18,36166.05,32668.64,24323.18
1133269.0369,-4079.44,20644.14,9384.3,36179.07,32722.19,24354.75
1133269.0389,-4094.27,20653.15,9479.57,36177.11,32760.29,24379.45
1133269.0409,-4105.95,20664.36,9566.74,36180.26,32807.16,24413.92
1133269.0429,-4096.51,20652.58,9541.23,36175.97,32801.35,24409.82
1133269.0449,-4087.69,20618.11,9415.82,36157.56,32737.69,24356.7
1133269.0469,-4094.55,20589.78,9307.19,36144.12,32681.42,24315.07
1133269.0489,-4067.47,20572.57,9175.83,36141.73,32618.24,24276.69
1133269.0509,-4064.75,20604.57,9226.75,36163.33,32649.95,24306.82
1133269.0529,-4090.64,20627.07,9346.06,36166.24,32701.54,24340.63
1133269.0549,-4109.57,20641.62,9448.2,36168.2,32744.89,24373.72
1133269.0569,-4098.51,20673.66,9559.49,36195.28,32811.22,24426.37
1133269.0589,-4108.0,20658.54,9574.32,36188.13,32822.28,24429.32
1133269.0609,-4099.18,20619.3,9455.16,36161.38,32759.24,24377.3
1133269.0629,-4088.35,20593.84,9347.01,36149.22,32702.64,24337.82
1133269.0649,-4080.73,20560.55,9205.1,36131.2,32628.97,24280.88
1133269.0669,-4068.33,20577.72,9184.55,36147.22,32624.49,24287.37
1133269.0689,-4073.91,20626.69,9315.21,36175.88,32691.63,24340.11
1133269.0709,-4091.69,20648.29,9424.26,36180.55,32740.02,24370.39
1133269.0729,-4104.76,20665.36,9524.25,36190.37,32789.9,24408.92
1133269.0749,-4114.87,20677.71,9600.59,36197.95,32834.92,24440.82
1133269.0769,-4103.23,20640.33,9510.85,36176.26,32789.42,24401.76
1133269.0789,-4083.63,20612.77,9395.74,36165.1,32736.88,24361.8
1133269.0809,-4072.86,20585.63,9271.62,36150.56,32672.22,24320.32
1133269.0829,-4067.61,20568.23,9171.63,36142.26,32619.29,24290.04
1133269.0849,-4074.19,20604.09,9269.1,36164.29,32669.12,24327.42
1133269.0869,-4083.49,20634.46,9392.45,36176.11,32723.81,24361.99
1133269.0889,-4099.56,20646.48,9483.2,36178.07,32762.53,24387.55
1133269.0909,-4104.9,20671.27,9591.25,36198.81,32830.81,24442.01
1133269.0929,-4107.9,20642.76,9547.57,36181.41,32812.79,24426.51
1133269.0949,-4099.75,20610.29,9428.84,36164.0,32750.52,24375.39
1133269.0969,-4089.21,20587.3,9320.16,36151.56,32698.78,24332.67
1133269.0989,-4074.91,20565.32,9184.03,36136.35,32628.92,24288.13
1133269.1009,-4075.24,20599.46,9233.33,36160.04,32656.05,24319.37
1133269.1029,-4091.41,20634.51,9366.89,36176.88,32717.37,24365.81
1133269.1049,-4103.76,20654.97,9468.37,36184.41,32763.06,24399.9
1133269.1069,-4105.95,20674.66,9573.84,36199.14,32820.71,24443.58
1133269.1089,-4114.01,20653.97,9582.33,36180.55,32821.99,24438.1
1133269.1109,-4095.6,20619.35,9469.84,36160.38,32763.87,24395.33
1133269.1129,-4083.73,20595.7,9361.89,36149.17,32712.75,24356.03
1133269.1149,-4072.71,20568.9,9223.37,36133.01,32641.46,24302.06
1133269.1169,-4073.19,20569.14,9188.61,36135.63,32620.72,24287.89
1133269.1189,-4089.5,20605.47,9314.16,36154.13,32679.42,24333.0
1133269.1209,-4097.22,20640.66,9435.13,36173.59,32741.5,24378.45
1133269.1229,-4109.96,20659.74,9533.12,36185.22,32791.0,24415.21
1133269.1249,-4121.78,20664.6,9608.94,36189.89,32837.78,24446.3
1133269.1269,-4119.59,20620.01,9508.75,36160.57,32783.75,24396.76
1133269.1289,-4107.05,20592.31,9398.65,36149.46,32729.11,24353.79
1133269.1309,-4092.31,20577.86,9287.93,36145.6,32676.8,24317.74
1133269.1329,-4077.82,20570.85,9197.09,36142.74,32632.45,24292.71
1133269.1349,-4069.52,20621.92,9301.19,36178.07,32693.91,24346.59
1133269.1369,-4095.84,20642.33,9415.87,36184.6,32743.27,24377.02
1133269.1389,-4105.85,20653.87,9502.7,36189.27,32782.46,24402.57
1133269.1408,-4106.71,20668.32,9610.32,36197.0,32842.54,24445.73
1133269.1428,-4105.62,20639.14,9561.92,36176.88,32818.51,24423.89
1133269.1448,-4103.09,20599.37,9438.42,36151.56,32753.47,24367.96
1133269.1468,-4086.54,20581.25,9324.79,36140.4,32698.92,24323.51
1133269.1488,-4068.66,20567.13,9208.49,36135.63,32642.75,24291.09
1133269.1508,-4073.91,20590.45,9236.91,36149.94,32655.67,24307.49
1133269.1528,-4081.63,20627.17,9368.9,36167.91,32717.95,24353.17
1133269.1548,-4094.27,20641.04,9465.36,36172.59,32757.86,24382.5
1133269.1568,-4111.39,20665.7,9582.95,36190.51,32825.57,24434.62
1133269.1588,-4122.54,20655.01,9594.11,36184.6,32838.78,24438.62
1133269.1608,-4120.59,20612.53,9480.72,36157.52,32775.93,24385.98
1133269.1628,-4111.1,20583.2,9354.97,36139.11,32710.22,24330.62
1133269.1648,-4094.17,20569.71,9239.91,36135.25,32657.87,24302.29
1133269.1668,-4076.0,20579.25,9204.1,36147.55,32644.9,24306.59
1133269.1688,-4085.16,20611.1,9323.69,36164.53,32704.98,24351.12
1133269.1708,-4085.11,20635.89,9429.27,36176.5,32754.85,24386.08
1133269.1728,-4104.66,20648.86,9530.12,36181.55,32802.35,24420.31
1133269.1748,-4114.06,20656.49,9599.26,36185.65,32838.11,24444.25
1133269.1768,-4107.81,20630.55,9522.63,36170.77,32803.49,24417.55
1133269.1788,-4101.52,20603.33,9397.65,36155.42,32740.93,24367.67
1133269.1808,-4094.89,20575.95,9286.55,36140.54,32685.19,24324.61
1133269.1828,-4070.71,20557.79,9176.3,36129.19,32625.73,24285.94
1133269.1848,-4064.89,20608.48,9287.26,36161.62,32687.95,24339.06
1133269.1868,-4082.58,20635.04,9400.42,36171.35,32736.35,24376.35
1133269.1888,-4102.52,20652.96,9499.46,36183.31,32784.61,24407.87
1133269.1908,-4115.39,20669.18,9592.34,36193.76,32838.78,24446.87
1133269.1928,-4120.78,20636.51,9547.85,36171.25,32813.93,24422.6
1133269.1948,-4105.33,20597.36,9419.25,36151.6,32748.8,24368.48
1133269.1968,-4084.92,20583.44,9325.98,36147.12,32707.5,24335.2
1133269.1988,-4063.89,20556.21,9185.74,36134.01,32636.17,24289.99
1133269.2008,-4071.81,20583.06,9226.47,36152.99,32658.87,24313.55
1133269.2028,-4090.4,20617.06,9351.06,36171.2,32714.37,24353.6
1133269.2048,-4107.24,20634.7,9451.2,36176.4,32758.57,24384.31
1133269.2068,-4120.02,20648.29,9543.09,36182.55,32805.88,24420.69
1133269.2088,-4126.22,20643.86,9566.83,36178.31,32821.13,24433.43
1133269.2108,-4115.25,20609.81,9454.35,36158.14,32764.06,24387.55
1133269.2128,-4102.71,20585.92,9348.35,36146.55,32716.56,24349.36
1133269.2148,-4082.39,20553.4,9204.58,36123.57,32641.22,24296.67
1133269.2168,-4087.73,20552.16,9159.52,36119.51,32612.38,24283.08
1133269.2188,-4098.56,20588.69,9276.15,36139.73,32669.02,24327.28
1133269.2208,-4099.32,20617.44,9395.08,36163.53,32730.06,24370.58
1133269.2228,-4111.81,20635.66,9495.78,36173.3,32780.32,24405.24
1133269.2248,-4126.88,20638.95,9563.83,36171.39,32818.99,24431.9
1133269.2268,-4113.39,20607.28,9480.53,36152.37,32777.98,24400.14
1133269.2288,-4091.02,20591.79,9375.53,36148.7,32730.73,24360.37
1133269.2308,-4087.16,20564.84,9248.4,36132.86,32667.16,24310.5
1133269.2328,-4083.3,20544.25,9139.16,36117.99,32605.13,24271.97
1133269.2348,-4081.39,20588.69,9242.2,36148.46,32658.72,24316.12
1133269.2368,-4089.79,20619.54,9363.18,36165.15,32717.14,24356.51
1133269.2388,-4099.46,20637.32,9457.3,36173.73,32763.49,24390.22
1133269.2408,-4114.82,20651.77,9557.01,36183.27,32822.04,24431.52
1133269.2428,-4117.35,20621.73,9511.47,36161.24,32796.67,24405.05
1133269.2448,-4102.99,20593.26,9397.6,36146.12,32736.07,24358.18
1133269.2468,-4090.6,20572.14,9293.8,36139.92,32688.57,24322.13
1133269.2488,-4081.15,20545.53,9156.71,36127.24,32619.19,24277.36
1133269.2508,-4082.63,20577.43,9202.72,36151.22,32646.61,24306.73
1133269.2528,-4089.93,20614.29,9334.71,36168.06,32708.03,24351.31
1133269.2548,-4112.67,20611.67,9410.67,36152.84,32728.39,24361.57
1133269.2568,-4107.38,20650.39,9530.21,36187.37,32803.11,24419.79
1133269.2588,-4115.34,20641.85,9554.72,36182.31,32815.98,24427.7
1133269.2608,-4107.29,20605.33,9438.75,36158.38,32756.05,24379.02
1133269.2628,-4099.23,20578.43,9329.22,36145.02,32703.21,24335.48
1133269.2648,-4081.92,20548.97,9189.32,36124.09,32630.88,24283.65
1133269.2668,-4063.65,20562.13,9159.66,36136.35,32621.2,24283.13
1133269.2688,-4073.52,20603.47,9286.31,36163.43,32683.57,24330.33
1133269.2708,-4088.69,20624.78,9393.07,36169.25,32729.92,24359.99
1133269.2728,-4105.85,20639.57,9482.05,36175.68,32773.78,24392.27
1133269.2748,-4122.07,20645.57,9562.06,36180.79,32820.28,24424.22
1133269.2768,-4119.59,20612.05,9478.95,36160.09,32778.7,24389.03
1133269.2788,-4109.72,20581.53,9362.17,36142.4,32718.19,24340.44
1133269.2808,-4096.7,20557.64,9239.25,36128.91,32655.2,24295.14
1133269.2828,-4078.2,20545.2,9144.07,36124.33,32609.85,24271.25
1133269.2848,-4073.05,20585.87,9242.25,36152.56,32660.39,24315.26
1133269.2868,-4087.11,20618.73,9365.7,36170.34,32718.38,24351.6
1133269.2888,-4108.0,20628.26,9447.0,36169.82,32752.61,24371.29
1133269.2908,-4123.83,20642.33,9559.35,36177.4,32810.83,24409.54
1133269.2928,-4119.97,20613.1,9512.81,36154.08,32781.84,24385.46
1133269.2948,-4116.11,20576.67,9388.64,36130.1,32716.37,24335.24
1133269.2968,-4095.46,20559.07,9281.45,36123.8,32664.78,24295.86
1133269.2988,-4068.23,20545.77,9165.53,36126.76,32615.24,24269.06
1133269.3008,-4067.28,20572.0,9193.8,36145.5,32633.64,24287.7
1133269.3028,-4082.63,20608.14,9324.41,36161.71,32691.2,24329.81
1133269.3048,-4090.74,20631.65,9422.02,36171.73,32736.11,24364.05
1133269.3068,-4106.09,20656.21,9539.8,36187.13,32800.54,24415.07
1133269.3088,-4110.72,20645.57,9554.43,36180.36,32814.41,24419.79
1133269.3108,-4104.33,20601.89,9442.62,36154.42,32753.9,24369.62
1133269.3128,-4094.79,20571.81,9320.93,36138.21,32691.24,24319.7
1133269.3148,-4074.81,20548.44,9197.05,36123.95,32630.3,24280.12
1133269.3168,-4059.98,20556.36,9154.51,36132.86,32612.85,24276.88
1133269.3188,-4073.95,20597.6,9284.64,36158.85,32677.8,24325.47
1133269.3208,-4093.36,20619.63,9384.44,36170.2,32724.67,24355.8
1133269.3228,-4109.91,20636.47,9489.11,36177.97,32776.79,24393.08
1133269.3248,-4122.45,20637.37,9552.91,36176.16,32811.69,24412.97
1133269.3268,-4110.43,20608.81,9475.28,36160.14,32773.55,24381.97
1133269.3288,-4086.21,20586.35,9357.55,36152.22,32718.57,24336.63
1133269.3308,-4070.76,20566.99,9255.12,36146.98,32670.07,24303.77
1133269.3328,-4059.94,20545.77,9140.68,36136.97,32609.51,24270.44
1133269.3348,-4066.09,20589.78,9241.77,36160.14,32662.11,24312.79
1133269.3368,-4079.87,20624.59,9360.51,36176.4,32717.95,24349.36
1133269.3388,-4096.7,20643.09,9461.21,36186.41,32763.77,24382.83
1133269.3408,-4111.15,20650.48,9548.28,36184.27,32806.69,24414.64
1133269.3428,-4111.86,20619.82,9512.62,36163.1,32788.38,24395.75
1133269.3448,-4091.93,20591.98,9390.74,36153.03,32728.77,24348.4
1133269.3468,-4080.68,20573.33,9295.85,36144.26,32680.56,24311.55
1133269.3488,-4061.6,20550.44,9158.76,36132.53,32612.71,24267.82
1133269.3508,-4072.33,20572.38,9191.13,36148.93,32632.02,24289.9
1133269.3528,-4085.35,20611.1,9320.55,36168.15,32693.15,24335.58
1133269.3548,-4090.69,20628.17,9419.3,36172.06,32738.45,24366.52
1133269.3568,-4102.52,20637.71,9510.42,36178.55,32786.95,24396.85
1133269.3588,-4107.29,20634.8,9540.51,36178.02,32807.02,24411.87
1133269.3608,-4093.98,20600.42,9429.65,36157.14,32752.9,24369.24
1133269.3628,-4078.53,20579.2,9328.75,36151.22,32705.98,24332.72
1133269.3648,-4068.9,20544.2,9184.36,36130.1,32631.12,24276.93
1133269.3668,-4067.18,20545.39,9144.12,36131.05,32603.46,24266.87
1133269.3688,-4078.1,20594.36,9273.1,36161.09,32671.12,24316.12
1133269.3708,-4092.79,20619.2,9382.44,36175.68,32724.67,24350.93
1133269.3728,-4107.62,20629.46,9475.66,36179.55,32769.92,24385.36
1133269.3748,-4121.88,20631.79,9546.85,36178.78,32809.64,24411.44
1133269.3768,-4111.62,20599.75,9464.55,36159.47,32769.11,24379.16
1133269.3788,-4097.89,20580.1,9356.79,36148.03,32716.47,24339.58
1133269.3808,-4080.49,20558.17,9239.72,36136.87,32658.68,24295.48
1133269.3828,-4062.99,20542.67,9133.96,36127.52,32601.98,24258.66
1133269.3848,-4081.54,20571.09,9221.84,36145.12,32641.7,24292.38
1133269.3868,-4097.03,20598.03,9340.0,36158.57,32696.63,24334.39
1133269.3888,-4095.75,20625.93,9442.86,36173.2,32745.03,24375.39
1133269.3908,-4104.19,20646.29,9549.52,36184.6,32801.73,24417.59
1133269.3928,-4107.29,20615.25,9512.09,36159.42,32778.36,24395.13
1133269.3948,-4111.39,20576.67,9388.59,36138.44,32714.32,24343.73
1133269.3968,-4095.13,20559.93,9285.59,36133.77,32668.07,24312.55
1133269.3988,-4067.52,20535.42,9149.7,36120.8,32601.79,24267.39
1133269.4008,-4067.33,20557.22,9177.35,36133.01,32613.57,24279.93
1133269.4028,-4077.05,20593.5,9303.71,36151.18,32674.41,24322.85
1133269.4048,-4091.02,20610.62,9402.13,36155.51,32721.0,24353.89
1133269.4068,-4104.66,20631.65,9505.42,36170.01,32775.69,24398.14
1133269.4088,-4115.44,20622.45,9529.73,36166.0,32795.24,24410.68
1133269.4108,-4108.14,20585.59,9415.82,36143.93,32739.31,24365.09
1133269.4128,-4101.75,20561.84,9313.49,36134.3,32687.19,24323.61
1133269.4148,-4091.69,20529.94,9175.73,36116.32,32616.05,24269.15
1133269.4168,-4077.44,20540.53,9141.4,36123.47,32598.83,24264.96
1133269.4188,-4085.83,20582.25,9262.28,36149.08,32663.92,24316.03
1133269.4208,-4099.42,20602.23,9371.09,36152.13,32711.37,24347.93
1133269.4228,-4110.96,20618.49,9461.31,36157.95,32749.85,24375.92
1133269.4248,-4115.92,20637.71,9554.34,36172.54,32803.68,24416.35
1133269.4268,-4112.53,20610.05,9472.75,36157.76,32765.54,24377.64
1133269.4288,-4110.38,20573.81,9352.97,36137.06,32704.21,24326.95
1133269.4308,-4095.36,20543.77,9225.8,36119.85,32637.6,24277.59
1133269.4328,-4078.05,20528.94,9125.04,36112.79,32588.15,24248.32
1133269.4348,-4080.34,20571.33,9216.36,36142.59,32639.7,24290.47
1133269.4368,-4088.97,20603.8,9342.05,36159.9,32700.83,24333.29
1133269.4388,-4094.17,20615.72,9427.5,36156.85,32732.87,24353.94
1133269.4408,-4107.19,20636.51,9541.08,36166.39,32794.91,24396.76
1133269.4428,-4103.28,20614.77,9502.7,36154.89,32778.27,24382.83
1133269.4448,-4096.89,20583.54,9389.07,36139.78,32724.53,24342.83
1133269.4468,-4092.07,20556.79,9270.72,36122.23,32662.11,24297.43
1133269.4488,-4078.96,20529.94,9140.54,36108.16,32596.64,24254.66
1133269.4508,-4078.67,20553.16,9164.91,36126.57,32612.8,24271.87
1133269.4528,-4084.59,20588.78,9295.27,36147.41,32680.75,24319.6
1133269.4548,-4092.65,20605.47,9387.07,36155.75,32721.24,24347.21
1133269.4568,-4108.62,20627.79,9502.94,36171.01,32783.42,24395.13
1133269.4588,-4112.58,20618.77,9524.87,36165.24,32795.15,24400.05
1133269.4608,-4103.85,20582.34,9418.06,36141.54,32739.5,24352.27
1133269.4628,-4099.7,20549.16,9293.37,36119.94,32672.55,24295.24
1133269.4648,-4090.4,20525.84,9173.49,36110.07,32614.85,24255.18
1133269.4668,-4078.1,20533.33,9128.67,36120.75,32591.82,24252.61
1133269.4688,-4084.78,20577.1,9260.61,36148.89,32660.25,24308.59
1133269.4708,-4089.07,20606.47,9365.18,36163.53,32709.27,24347.12
1133269.4728,-4108.38,20624.35,9467.89,36172.35,32758.67,24385.98
1133269.4748,-4123.64,20623.5,9531.4,36166.86,32788.57,24399.47
1133269.4768,-4106.71,20595.93,9459.78,36148.65,32751.37,24366.62
1133269.4788,-4091.84,20564.27,9331.42,36127.38,32683.19,24308.88
1133269.4808,-4085.73,20541.58,9221.6,36113.6,32627.63,24267.39
1133269.4828,-4068.14,20526.89,9110.93,36106.78,32575.23,24235.06
1133269.4848,-4062.46,20577.1,9220.12,36146.31,32642.51,24291.09
1133269.4868,-4070.43,20608.09,9334.23,36162.57,32699.06,24334.15
1133269.4888,-4094.55,20605.76,9415.2,36147.93,32725.96,24351.08
1133269.4908,-4099.32,20630.03,9519.1,36166.39,32783.27,24393.42
1133269.4928,-4103.71,20612.81,9493.88,36154.8,32773.78,24377.64
1133269.4948,-4099.08,20570.09,9364.37,36123.71,32699.3,24319.03
1133269.4968,-4092.07,20550.59,9268.9,36117.27,32654.05,24290.04
1133269.4988,-4072.38,20521.69,9122.71,36105.3,32585.72,24244.84
1133269.5008,-4066.04,20549.59,9162.81,36127.38,32609.04,24269.15
1133269.5028,-4078.96,20585.73,9290.51,36144.98,32668.02,24310.78
1133269.5048,-4102.8,20607.14,9392.07,36154.51,32713.94,24346.26
1133269.5068,-4117.73,20621.06,9487.96,36162.05,32761.53,24379.54
1133269.5088,-4116.87,20617.34,9522.77,36163.1,32787.9,24395.09
1133269.5108,-4110.81,20580.58,9410.53,36141.45,32731.68,24347.17
1133269.5128,-4101.04,20557.64,9305.86,36129.48,32679.37,24305.49
1133269.5148,-4079.44,20526.27,9164.72,36114.36,32608.47,24254.85
1133269.5168,-4069.04,20531.42,9121.47,36121.04,32586.91,24246.46
1133269.5188,-4077.96,20571.52,9241.49,36143.93,32646.23,24292.38
1133269.5208,-4088.93,20598.8,9355.26,36155.37,32701.4,24333.15
1133269.5228,-4100.7,20618.77,9456.83,36165.34,32755.43,24372.49
1133269.5248,-4116.49,20630.08,9538.84,36177.07,32802.73,24405.91
1133269.5268,-4115.53,20599.42,9459.59,36157.56,32759.91,24370.96
1133269.5288,-4098.94,20563.51,9337.9,36132.86,32693.44,24315.17
1133269.5308,-4076.0,20537.57,9217.07,36115.56,32632.16,24270.92
1133269.5328,-4067.76,20522.74,9108.69,36107.26,32575.09,24239.4
1133269.5348,-4072.52,20561.51,9203.86,36130.72,32622.15,24279.17
1133269.5368,-4078.96,20589.16,9323.07,36146.74,32680.66,24318.98
1133269.5388,-4090.88,20602.75,9413.34,36154.85,32725.1,24351.89
1133269.5408,-4107.48,20622.16,9518.2,36166.2,32785.37,24392.42
1133269.5428,-4110.19,20595.84,9487.68,36144.69,32767.59,24377.16
1133269.5448,-4108.48,20556.5,9361.22,36121.04,32703.36,24325.8
1133269.5468,-4093.5,20542.1,9262.04,36119.42,32658.44,24292.42
1133269.5488,-4060.46,20531.99,9137.54,36122.09,32604.03,24261.67
1133269.5508,-4058.03,20557.55,9171.44,36139.54,32622.72,24283.13
1133269.5528,-4095.08,20568.09,9277.58,36135.58,32660.82,24305.68
1133269.5548,-4101.47,20589.5,9380.68,36146.93,32709.22,24344.59
1133269.5568,-4112.05,20614.39,9489.39,36161.86,32766.54,24385.84
1133269.5588,-4118.25,20609.33,9522.53,36157.56,32786.52,24394.56
1133269.5608,-4104.71,20578.39,9412.19,36138.44,32733.16,24351.22
1133269.5628,-4099.8,20554.26,9302.9,36123.18,32674.98,24305.92
1133269.5648,-4085.02,20520.69,9163.81,36101.44,32600.84,24255.18
1133269.5668,-4072.57,20528.51,9121.56,36109.17,32584.1,24252.32
1133269.5688,-4082.39,20572.62,9248.07,36136.54,32646.9,24300.58
1133269.5708,-4092.84,20601.56,9365.66,36152.75,32704.5,24341.63
1133269.5728,-4095.36,20626.93,9461.69,36168.96,32754.23,24379.54
1133269.5748,-4111.72,20635.32,9546.81,36170.63,32800.96,24408.63
1133269.5768,-4109.1,20602.42,9463.5,36148.41,32758.05,24371.67
1133269.5788,-4092.69,20574.72,9351.4,36133.1,32702.4,24328.76
1133269.5808,-4072.0,20550.87,9229.38,36123.18,32644.09,24287.32
1133269.5828,-4055.36,20532.9,9125.76,36115.08,32594.06,24258.19
1133269.5848,-4057.36,20570.95,9214.55,36143.69,32641.94,24300.1
1133269.5868,-4072.71,20600.99,9334.09,36157.76,32699.16,24338.15
1133269.5888,-4093.7,20617.87,9421.16,36159.42,32734.68,24364.47
1133269.5908,-4109.0,20643.95,9543.09,36173.68,32800.34,24412.21
1133269.5928,-4099.8,20628.74,9513.76,36166.86,32790.09,24403.34
1133269.5948,-4083.35,20593.84,9397.46,36146.03,32731.01,24354.94
1133269.5968,-4066.61,20565.23,9278.73,36130.48,32669.36,24306.01
1133269.5988,-4050.06,20544.25,9154.42,36122.85,32607.94,24268.96
1133269.6008,-4042.82,20568.99,9179.21,36143.26,32624.58,24288.94
1133269.6028,-4057.6,20603.71,9311.01,36159.42,32687.1,24332.62
1133269.6048,-4071.95,20618.35,9403.52,36160.14,32721.28,24360.99
1133269.6068,-4087.88,20637.71,9516.91,36171.44,32780.6,24407.34
1133269.6088,-4100.9,20626.93,9534.41,36163.33,32795.39,24411.16
1133269.6108,-4099.66,20593.26,9430.17,36147.41,32745.41,24371.29
1133269.6128,-4077.05,20573.0,9318.88,36139.02,32689.96,24326.04
1133269.6148,-4061.56,20549.49,9201.38,36130.58,32634.21,24286.7
1133269.6168,-4049.73,20550.83,9144.97,36133.01,32605.51,24275.02
1133269.6188,-4063.89,20593.93,9272.72,36154.94,32667.31,24323.32
1133269.6208,-4072.62,20618.25,9380.06,36166.86,32716.28,24360.47
1133269.6228,-4078.72,20641.9,9489.59,36181.26,32771.07,24399.0
1133269.6248,-4093.98,20644.86,9555.53,36179.55,32806.45,24417.21
1133269.6268,-4082.73,20618.87,9484.58,36163.33,32773.55,24390.65
1133269.6288,-4068.23,20591.07,9361.94,36147.74,32710.7,24340.92
1133269.6308,-4058.46,20576.43,9260.89,36140.78,32662.54,24303.15
1133269.6328,-4038.76,20554.78,9141.4,36127.05,32597.21,24260.19
1133269.6348,-4030.51,20599.75,9239.82,36157.47,32652.1,24306.3
1133269.6368,-4038.38,20632.51,9360.22,36173.73,32703.55,24343.73
1133269.6388,-4044.1,20657.64,9464.93,36187.37,32756.95,24379.02
1133269.6408,-4052.35,20680.67,9566.36,36202.53,32813.84,24421.12
1133269.6428,-4053.21,20662.74,9548.76,36191.28,32806.5,24412.44
1133269.6448,-4047.97,20622.88,9413.91,36160.9,32733.54,24353.32
1133269.6468,-4054.07,20593.55,9304.38,36137.16,32668.88,24297.34
1133269.6488,-4026.41,20572.71,9167.82,36125.33,32598.12,24253.71
1133269.6508,-4004.05,20609.67,9208.54,36154.42,32626.63,24285.89
1133269.6528,-4005.24,20653.87,9346.53,36181.98,32698.44,24337.96
1133269.6548,-4010.2,20680.0,9456.11,36198.95,32748.61,24379.54
1133269.6568,-4015.97,20695.97,9549.0,36207.78,32796.1,24412.73
1133269.6588,-4023.22,20689.73,9579.95,36199.53,32815.13,24421.89
1133269.6608,-4000.62,20656.97,9471.56,36177.35,32759.29,24377.49
1133269.6628,-3978.44,20639.99,9367.47,36163.24,32703.21,24330.71
1133269.6648,-3958.32,20612.29,9229.42,36140.11,32628.64,24276.88
1133269.6668,-3949.69,20616.58,9180.36,36143.21,32605.79,24271.16
1133269.6688,-3974.87,20651.01,9296.75,36162.48,32664.3,24313.83
1133269.6708,-3995.71,20680.38,9409.81,36180.07,32717.33,24352.84
1133269.6728,-4004.43,20704.99,9516.48,36195.47,32770.07,24395.28
1133269.6748,-3997.66,20715.67,9597.02,36200.05,32817.99,24427.37
1133269.6768,-3981.88,20685.48,9518.1,36179.83,32778.22,24396.8
1133269.6788,-3965.38,20661.4,9409.43,36169.25,32721.57,24353.22
1133269.6808,-3943.16,20636.42,9288.26,36154.42,32661.63,24305.39
1133269.6828,-3919.27,20621.25,9173.92,36142.93,32600.93,24265.72
1133269.6848,-3923.99,20659.88,9265.42,36167.86,32648.52,24305.49
1133269.6868,-3929.38,20695.07,9390.55,36187.08,32708.6,24347.83
1133269.6888,-3931.57,20712.95,9486.96,36194.66,32753.42,24378.59
1133269.6908,-3945.07,20730.26,9590.1,36204.44,32809.88,24420.88
1133269.6928,-3945.64,20707.18,9562.49,36188.61,32795.05,24406.39
1133269.6948,-3939.82,20673.23,9441.09,36167.58,32729.87,24357.23
1133269.6968,-3926.37,20653.06,9336.42,36154.42,32677.75,24316.98
1133269.6988,-3905.11,20627.88,9197.86,36144.79,32608.61,24272.02
1133269.7008,-3904.44,20653.87,9227.23,36164.53,32627.35,24290.04
1133269.7028,-3925.42,20686.49,9354.07,36181.74,32687.86,24334.82
1133269.7048,-3938.82,20711.04,9456.78,36193.61,32736.11,24370.72
1133269.7068,-3942.16,20735.79,9562.45,36207.16,32794.1,24409.68
1133269.7088,-3939.82,20731.74,9596.49,36200.86,32812.31,24413.97
1133269.7108,-3926.37,20697.5,9488.73,36180.21,32752.28,24365.48
1133269.7128,-3926.95,20668.37,9379.58,36164.05,32697.68,24322.37
1133269.7148,-3923.94,20641.33,9245.06,36152.46,32630.88,24280.98
1133269.7168,-3931.71,20641.04,9193.33,36154.04,32603.22,24269.39
1133269.7188,-3927.66,20684.53,9316.73,36180.5,32666.4,24315.88
1133269.7208,-3918.55,20712.14,9427.98,36192.71,32720.76,24351.7
1133269.7228,-3913.83,20729.59,9518.29,36202.2,32763.68,24384.31
1133269.7248,-3925.51,20738.56,9608.32,36206.3,32812.27,24415.21
1133269.7268,-3929.47,20704.03,9524.92,36184.6,32768.25,24379.88
1133269.7288,-3925.99,20675.57,9413.05,36170.87,32712.94,24339.06
1133269.7308,-3920.89,20639.37,9284.88,36151.65,32647.38,24288.09
1133269.7328,-3910.26,20628.03,9184.74,36152.18,32603.46,24264.39
1133269.7348,-3924.27,20660.93,9264.52,36175.11,32642.8,24299.67
1133269.7368,-3942.35,20690.01,9384.39,36186.27,32700.92,24339.82
1133269.7388,-3946.88,20712.47,9476.95,36197.91,32746.22,24373.92
1133269.7408,-3961.33,20733.41,9596.97,36213.02,32812.98,24428.32
1133269.7428,-3965.43,20700.03,9555.05,36189.89,32788.71,24407.2
1133269.7448,-3955.08,20665.36,9439.37,36171.87,32733.49,24363.33
1133269.7468,-3949.64,20638.61,9319.35,36156.23,32672.6,24309.16
1133269.7488,-3947.35,20610.29,9188.22,36140.45,32602.6,24264.86
1133269.7508,-3942.11,20632.22,9207.82,36159.52,32615.71,24284.89
1133269.7528,-3942.01,20674.42,9347.82,36190.32,32691.53,24342.11
1133269.7548,-3961.33,20689.97,9439.61,36193.85,32729.92,24367.76
1133269.7568,-3976.2,20710.42,9555.05,36202.24,32786.99,24408.01
1133269.7588,-3980.4,20702.98,9579.23,36199.48,32805.69,24417.59
1133269.7608,-3973.77,20664.69,9474.66,36177.45,32753.04,24378.11
1133269.7628,-3964.19,20637.32,9356.79,36161.47,32693.29,24328.52
1133269.7648,-3962.61,20604.23,9228.99,36141.83,32626.63,24279.79
1133269.7668,-3949.59,20609.38,9175.83,36151.6,32601.5,24270.11
1133269.7688,-3976.49,20639.47,9292.37,36163.81,32651.86,24306.3
1133269.7708,-3992.41,20668.8,9400.51,36172.35,32698.54,24338.2
1133269.7728,-4014.3,20682.29,9502.17,36178.26,32746.18,24372.87
1133269.7748,-4036.0,20686.34,9575.27,36180.64,32784.8,24396.61
1133269.7768,-4030.42,20659.35,9505.18,36168.48,32753.52,24370.77
1133269.7788,-4017.31,20621.02,9375.53,36148.84,32689.0,24316.22
1133269.7808,-4004.1,20595.55,9268.43,36142.45,32639.17,24279.98
1133269.7828,-3988.31,20571.76,9144.5,36131.82,32579.76,24243.41
1133269.7848,-3991.46,20615.58,9243.06,36162.52,32636.5,24295.33
1133269.7868,-4007.67,20649.53,9365.75,36181.6,32697.78,24342.68
1133269.7888,-4021.74,20666.74,9465.03,36185.7,32743.12,24370.48
1133269.7908,-4034.09,20680.14,9562.26,36190.56,32792.91,24402.67
1133269.7928,-4047.82,20658.21,9539.75,36180.5,32785.99,24394.32
1133269.7948,-4038.43,20619.59,9410.43,36157.99,32720.14,24342.25
1133269.7968,-4022.03,20605.28,9322.93,36158.71,32681.52,24311.83
1133269.7988,-4014.25,20572.43,9177.83,36140.88,32607.89,24261.14
1133269.8008,-4023.5,20590.12,9199.38,36153.7,32619.77,24279.41
1133269.8028,-4013.44,20628.45,9327.75,36175.3,32684.04,24328.66
1133269.8048,-4007.77,20654.82,9435.89,36190.28,32738.36,24370.53
1133269.8068,-4021.22,20674.42,9533.74,36199.76,32789.66,24408.87
1133269.8088,-4037.48,20666.22,9568.31,36192.14,32805.97,24416.16
1133269.8108,-4038.53,20623.5,9457.11,36167.2,32747.7,24367.38
1133269.8128,-4032.95,20596.7,9347.87,36154.94,32695.92,24326.47
1133269.8148,-4024.46,20569.37,9213.11,36140.83,32631.07,24283.75
1133269.8168,-4019.02,20573.09,9162.14,36145.17,32607.61,24274.73
1133269.8188,-4026.03,20613.63,9281.21,36170.49,32668.12,24325.33
1133269.8208,-4036.14,20639.23,9396.84,36187.13,32719.95,24367.48
1133269.8228,-4051.83,20657.16,9493.92,36192.14,32769.87,24399.57
1133269.8248,-4071.28,20662.6,9570.65,36189.7,32810.79,24422.22
1133269.8268,-4074.14,20626.83,9489.59,36166.77,32768.78,24389.17
1133269.8288,-4063.13,20605.47,9382.11,36160.04,32717.99,24350.5
1133269.8308,-4041.96,20585.68,9269.67,36149.74,32664.59,24308.88
1133269.8328,-4025.65,20560.41,9146.79,36135.06,32601.5,24267.06
1133269.8348,-4031.94,20593.12,9230.14,36155.42,32643.85,24302.91
1133269.8368,-4051.26,20618.63,9348.58,36165.96,32696.3,24339.73
1133269.8388,-4062.99,20634.42,9440.33,36169.63,32737.69,24370.2
1133269.8408,-4072.62,20649.86,9543.94,36179.59,32792.52,24415.69
1133269.8428,-4079.29,20625.5,9516.72,36163.1,32781.08,24401.0
1133269.8448,-4067.71,20593.12,9398.27,36142.69,32719.09,24351.03
1133269.8468,-4051.16,20570.9,9296.7,36136.15,32670.69,24315.79
1133269.8488,-4032.76,20540.72,9151.22,36117.7,32597.74,24267.87
1133269.8508,-4037.09,20565.32,9177.11,36135.92,32614.43,24288.85
1133269.8528,-4054.83,20608.14,9311.92,36159.66,32680.18,24337.15
1133269.8548,-4060.36,20630.65,9417.58,36167.2,32721.67,24369.24
1133269.8568,-4067.28,20648.15,9518.1,36178.16,32775.26,24402.72
1133269.8588,-4074.0,20646.0,9559.39,36176.4,32800.77,24416.83
1133269.8608,-4076.53,20604.99,9447.19,36154.42,32742.03,24370.2
1133269.8628,-4072.14,20577.53,9339.57,36138.82,32685.81,24327.42
1133269.8648,-4048.87,20555.64,9205.15,36126.76,32619.86,24282.27
1133269.8668,-4036.62,20561.27,9156.9,36133.1,32598.07,24275.59
1133269.8688,-4054.36,20598.08,9272.72,36157.42,32659.73,24320.75
1133269.8708,-4074.81,20625.74,9389.31,36171.73,32714.04,24358.08
1133269.8728,-4079.2,20643.76,9480.14,36180.26,32756.9,24387.89
1133269.8748,-4084.4,20648.72,9563.3,36179.98,32802.16,24417.74
1133269.8768,-4066.66,20620.87,9488.54,36163.86,32768.83,24387.65
1133269.8788,-4045.01,20600.61,9386.02,36159.57,32722.33,24353.36
1133269.8808,-4040.53,20570.23,9262.18,36145.36,32660.54,24305.54
1133269.8828,-4037.86,20551.3,9152.08,36135.92,32603.74,24270.44
1133269.8848,-4040.43,20584.97,9226.99,36152.41,32641.37,24303.58
1133269.8868,-4055.74,20609.29,9348.06,36161.47,32696.3,24341.01
1133269.8888,-4073.1,20619.35,9432.98,36162.67,32731.82,24367.48
1133269.8908,-4091.31,20644.1,9552.05,36179.83,32796.91,24420.98
1133269.8928,-4094.98,20624.78,9520.39,36168.25,32784.85,24407.44
1133269.8948,-4084.25,20590.21,9402.56,36147.41,32724.62,24358.23
1133269.8968,-4061.75,20564.94,9286.12,36131.67,32663.78,24311.88
1133269.8988,-4040.81,20539.43,9158.09,36118.18,32602.22,24273.06
1133269.9008,-4044.29,20554.59,9165.96,36128.57,32605.94,24285.18
1133269.9028,-4062.56,20591.55,9298.75,36148.12,32668.4,24331.14
1133269.9048,-4076.24,20612.0,9397.94,36159.28,32716.33,24367.76
1133269.9068,-4090.12,20639.8,9518.1,36173.97,32780.75,24410.06
1133269.9088,-4100.28,20634.46,9545.52,36167.58,32795.86,24409.96
1133269.9108,-4101.04,20594.12,9436.32,36143.55,32735.02,24362.33
1133269.9128,-4075.34,20565.32,9318.35,36131.24,32673.32,24315.5
1133269.9148,-4053.83,20539.48,9197.86,36118.65,32616.91,24275.21
1133269.9168,-4048.11,20544.82,9138.87,36128.53,32592.92,24267.87
1133269.9188,-4057.12,20589.97,9270.48,36158.85,32659.3,24320.22
1133269.9208,-4065.94,20611.1,9375.67,36166.72,32704.26,24351.55
1133269.9228,-4081.35,20620.54,9470.37,36167.82,32748.27,24385.79
1133269.9248,-4097.65,20626.02,9543.8,36169.91,32789.42,24408.72
1133269.9268,-4104.09,20590.74,9468.37,36144.55,32749.04,24372.82
1133269.9288,-4085.3,20569.61,9346.49,36131.53,32691.53,24330.14
1133269.9308,-4078.67,20550.92,9246.26,36124.28,32644.8,24294.09
1133269.9328,-4059.03,20533.75,9127.19,36116.56,32584.43,24257.71
1133269.9348,-4050.11,20575.43,9219.36,36145.17,32634.98,24302.53
1133269.9368,-4054.59,20602.9,9336.09,36158.04,32690.2,24341.35
1133269.9388,-4062.03,20623.88,9437.56,36167.91,32739.69,24378.73
1133269.9408,-4062.22,20649.01,9543.75,36184.6,32801.2,24425.84
1133269.9428,-4062.89,20637.09,9531.98,36176.73,32796.82,24421.69
1133269.9448,-4066.28,20593.93,9401.47,36157.42,32731.35,24367.86
1133269.9468,-4063.94,20574.43,9305.43,36148.46,32684.28,24327.23
1133269.9488,-4047.97,20542.86,9155.61,36122.33,32603.94,24265.96
1133269.9508,-4025.56,20570.47,9177.97,36138.01,32614.04,24280.98
1133269.9528,-4010.01,20617.96,9317.69,36164.67,32681.33,24331.05
1133269.9548,-4008.1,20644.86,9428.79,36175.4,32728.29,24364.28
1133269.9568,-4022.98,20666.55,9529.78,36185.41,32780.79,24404.81
1133269.9588,-4028.99,20669.42,9574.56,36186.84,32808.21,24421.27
1133269.9608,-4006.29,20639.37,9471.56,36168.06,32754.95,24376.97
1133269.9628,-3987.46,20624.07,9372.43,36161.33,32707.89,24338.15
1133269.9648,-3972.86,20597.17,9240.01,36149.22,32643.94,24292.38
1133269.9668,-3946.07,20599.56,9184.08,36155.66,32620.15,24283.13
1133269.9688,-3940.77,20642.62,9304.76,36182.07,32680.85,24329.0
1133269.9708,-3963.42,20670.56,9419.11,36192.28,32728.2,24361.09
1133269.9727,-3968.95,20698.65,9524.44,36204.96,32781.27,24399.9
1133269.9747,-3971.05,20711.71,9610.65,36210.11,32826.14,24428.18
1133269.9767,-3952.22,20680.14,9540.13,36188.18,32784.85,24388.84
1133269.9787,-3926.9,20659.31,9428.5,36175.68,32730.39,24346.21
1133269.9807,-3913.83,20639.09,9315.21,36166.34,32673.74,24302.2
1133269.9827,-3912.4,20612.1,9187.46,36144.69,32600.98,24251.23
1133269.9847,-3912.5,20644.33,9267.19,36157.9,32634.17,24278.31
1133269.9867,-3910.69,20679.67,9390.98,36174.54,32695.11,24322.66
1133269.9887,-3909.64,20702.79,9491.25,36187.89,32746.75,24365.14
1133269.9907,-3928.52,20728.69,9608.99,36212.26,32816.37,24417.83
1133269.9927,-3984.74,20694.69,9576.94,36187.7,32797.72,24394.13
1133269.9947,-3987.17,20664.84,9459.16,36167.39,32733.92,24345.21
1133269.9967,-3940.01,20650.39,9357.83,36158.47,32683.09,24306.16
1133269.9987,-3888.46,20623.64,9215.17,36142.97,32613.62,24261.19
1133270.0007,-3880.26,20637.23,9228.76,36155.23,32626.73,24283.32
1133270.0027,-3904.53,20670.85,9354.69,36175.88,32689.38,24328.09
1133270.0047,-3926.28,20687.15,9452.96,36177.5,32727.05,24353.08
1133270.0067,-3938.2,20702.89,9551.29,36185.08,32775.17,24386.46
1133270.0087,-3956.18,20702.27,9597.92,36189.8,32807.64,24406.96
1133270.0107,-3957.65,20661.59,9487.39,36170.25,32756.38,24368.67
1133270.0127,-3960.13,20632.41,9376.19,36151.6,32698.44,24324.32
1133270.0147,-3952.17,20593.93,9228.28,36122.04,32613.66,24263.53
1133270.0167,-3932.52,20597.98,9176.06,36126.81,32587.96,24253.75
1133270.0187,-3932.19,20638.9,9296.61,36155.85,32654.34,24304.35
1133270.0207,-3949.69,20661.17,9411.05,36171.54,32714.8,24348.21
1133270.0227,-3964.23,20677.66,9498.45,36180.26,32756.48,24379.3
1133270.0247,-3982.97,20691.83,9593.2,36184.22,32808.45,24415.93
1133270.0267,-3978.3,20656.78,9514.76,36164.29,32768.78,24384.79
1133270.0287,-3975.73,20621.45,9400.42,36148.55,32713.42,24339.11
1133270.0307,-3988.5,20587.78,9270.38,36128.81,32645.99,24280.69
1133270.0327,-4013.82,20558.5,9149.36,36111.17,32581.76,24242.12
1133270.0347,-4033.47,20590.36,9225.42,36136.39,32621.63,24280.22
1133270.0367,-4031.52,20618.58,9349.39,36148.08,32678.23,24323.94
1133270.0387,-4035.23,20628.84,9429.17,36145.88,32709.17,24341.97
1133270.0407,-4021.45,20665.08,9561.35,36172.68,32786.85,24396.04
1133270.0427,-4013.4,20647.67,9537.03,36161.43,32776.26,24380.88
1133270.0447,-4031.99,20600.8,9415.15,36136.35,32713.89,24332.34
1133270.0467,-4037.81,20568.56,9295.42,36124.57,32654.72,24289.61
1133270.0487,-4027.41,20541.58,9162.09,36106.02,32585.91,24243.64
1133270.0507,-4012.44,20567.61,9178.54,36128.67,32597.26,24257.19
1133270.0527,-4002.38,20613.86,9320.07,36156.13,32670.74,24310.5
1133270.0547,-4001.28,20633.84,9416.68,36165.67,32716.9,24346.93
1133270.0567,-4021.6,20651.96,9531.59,36182.12,32784.66,24397.28
1133270.0587,-4045.3,20643.05,9554.77,36174.68,32797.72,24402.19
1133270.0607,-4053.64,20599.03,9442.33,36147.98,32739.36,24353.36
1133270.0627,-4049.25,20567.99,9321.45,36134.39,32680.09,24305.25
1133270.0647,-4037.91,20555.64,9214.93,36133.82,32631.31,24277.5
1133270.0667,-4022.41,20555.74,9151.6,36139.16,32600.84,24263.34
1133270.0687,-4028.37,20594.31,9272.91,36162.67,32663.92,24311.55
1133270.0707,-4038.14,20614.67,9373.67,36166.24,32704.07,24339.82
1133270.0727,-4059.7,20630.79,9471.66,36170.82,32752.04,24373.34
1133270.0747,-4061.56,20644.05,9554.67,36178.5,32798.96,24406.01
1133270.0767,-4042.29,20613.29,9485.39,36160.09,32766.54,24375.73
1133270.0787,-4045.34,20578.77,9358.03,36144.07,32699.02,24325.37
1133270.0807,-4050.64,20567.9,9267.95,36141.88,32657.01,24298.86
1133270.0827,-4047.25,20535.52,9136.11,36115.6,32582.38,24247.03
1133270.0847,-4060.84,20572.38,9220.17,36139.4,32625.73,24281.31
1133270.0867,-4063.03,20605.47,9340.24,36158.47,32684.14,24323.37
1133270.0887,-4057.12,20625.74,9441.57,36170.39,32733.49,24362.38
1133270.0907,-4056.93,20643.43,9539.46,36179.36,32786.52,24401.62
1133270.0927,-4049.02,20627.55,9525.68,36169.53,32784.37,24396.37
1133270.0947,-4044.53,20594.03,9404.09,36150.84,32720.86,24348.79
1133270.0967,-4054.07,20570.76,9307.77,36144.5,32674.51,24319.13
1133270.0987,-4044.87,20539.67,9162.76,36129.29,32605.79,24275.12
1133270.1007,-4045.25,20558.65,9178.88,36141.26,32612.52,24285.84
1133270.1027,-4050.21,20594.07,9303.48,36157.04,32672.6,24324.32
1133270.1047,-4059.89,20615.63,9403.52,36164.48,32717.04,24357.46
1133270.1067,-4072.38,20633.99,9500.31,36175.68,32770.88,24401.05
1133270.1087,-4098.27,20625.78,9536.32,36168.58,32788.9,24406.15
1133270.1107,-4094.93,20580.58,9425.16,36140.45,32728.44,24352.46
1133270.1127,-4086.69,20549.01,9312.82,36120.8,32667.78,24301.72
1133270.1147,-4068.09,20526.84,9179.69,36106.54,32603.32,24251.56
1133270.1167,-4043.25,20539.76,9133.05,36123.9,32590.68,24255.95
1133270.1187,-4058.31,20580.72,9251.4,36149.74,32652.1,24302.72
1133270.1207,-4080.53,20604.18,9364.56,36162.05,32701.78,24339.15
1133270.1227,-4087.45,20621.92,9463.31,36167.91,32746.27,24368.19
1133270.1247,-4086.49,20630.98,9546.33,36169.82,32788.71,24396.14
1133270.1267,-4070.47,20598.03,9472.75,36149.41,32752.8,24366.38
1133270.1287,-4070.04,20566.37,9353.35,36134.2,32697.4,24323.23
1133270.1307,-4056.74,20549.78,9244.82,36129.38,32646.09,24293.0
1133270.1327,-4038.57,20528.94,9125.52,36120.99,32587.29,24259.0
1133270.1347,-4056.5,20561.98,9203.15,36137.59,32625.25,24289.75
1133270.1367,-4064.51,20593.31,9320.88,36151.32,32677.46,24328.38
1133270.1387,-4064.47,20615.87,9425.31,36163.29,32727.39,24366.05
1133270.1407,-4096.08,20628.98,9532.17,36169.91,32779.65,24402.91
1133270.1427,-4114.58,20603.66,9507.47,36151.08,32763.68,24384.74
1133270.1447,-4081.35,20570.95,9385.78,36134.44,32706.93,24344.4
1133270.1467,-4074.19,20537.52,9279.01,36118.37,32654.53,24303.06
1133270.1487,-4060.27,20511.58,9134.96,36101.58,32577.76,24251.42
1133270.1507,-4049.02,20539.05,9155.56,36118.65,32591.73,24268.34
1133270.1527,-4060.36,20576.57,9282.07,36141.3,32654.43,24310.78
1133270.1547,-4073.24,20596.7,9380.68,36150.27,32698.78,24344.83
1133270.1567,-4095.08,20612.53,9479.95,36159.47,32751.18,24383.69
1133270.1587,-4105.28,20614.25,9529.54,36160.04,32778.89,24401.52
1133270.1607,-4083.25,20579.96,9423.35,36140.97,32726.58,24360.56
1133270.1627,-4059.12,20551.16,9316.25,36126.05,32672.65,24318.27
1133270.1647,-4049.11,20516.68,9174.49,36103.06,32599.02,24264.77
1133270.1667,-4050.92,20521.98,9125.38,36111.03,32577.76,24258.04
1133270.1687,-4068.28,20566.9,9250.45,36139.02,32643.32,24308.73
1133270.1707,-4091.45,20590.16,9363.8,36147.88,32695.49,24341.92
1133270.1727,-4101.56,20606.47,9446.1,36155.47,32733.83,24369.24
1133270.1747,-4105.9,20625.59,9547.09,36166.67,32790.0,24411.49
1133270.1767,-4105.62,20595.03,9476.81,36145.41,32752.28,24381.31
1133270.1787,-4100.51,20559.69,9359.55,36126.52,32690.62,24333.43
1133270.1807,-4079.53,20527.65,9233.24,36109.59,32628.92,24291.23
1133270.1827,-4072.24,20513.06,9124.8,36107.54,32582.43,24266.06
1133270.1847,-4084.44,20553.26,9202.24,36132.01,32624.3,24297.34
1133270.1867,-4089.36,20588.73,9332.18,36151.08,32686.43,24335.39
1133270.1887,-4081.01,20606.57,9419.78,36161.0,32727.29,24368.0
1133270.1907,-4083.16,20628.69,9540.46,36172.73,32794.29,24413.87
1133270.1927,-4086.73,20607.43,9512.0,36155.23,32779.27,24396.28
1133270.1947,-4089.64,20564.99,9388.92,36124.52,32713.85,24341.4
1133270.1967,-4087.64,20535.85,9272.0,36110.17,32651.81,24293.81
1133270.1987,-4067.85,20520.36,9155.42,36107.93,32596.16,24262.1
1133270.2007,-4061.65,20545.91,9166.62,36127.0,32603.03,24274.07
1133270.2027,-4074.72,20592.12,9305.43,36155.9,32673.98,24328.95
1133270.2047,-4097.8,20613.72,9401.23,36163.67,32716.42,24360.95
1133270.2067,-4120.45,20633.37,9513.76,36172.3,32771.16,24399.62
1133270.2087,-4133.08,20634.46,9558.39,36168.58,32793.34,24406.39
1133270.2107,-4122.21,20593.65,9449.53,36141.35,32736.69,24358.56
1133270.2127,-4072.48,20558.98,9321.6,36124.19,32673.7,24312.17
1133270.2147,-4032.71,20535.28,9204.44,36120.09,32626.06,24281.7
1133270.2167,-4029.61,20531.56,9135.3,36122.23,32594.64,24267.82
1133270.2187,-4057.5,20581.77,9268.57,36155.9,32662.78,24324.09
1133270.2207,-4077.05,20612.29,9377.34,36170.15,32713.13,24359.94
1133270.2227,-4070.71,20640.47,9486.77,36188.85,32771.88,24406.87
1133270.2247,-4080.2,20632.36,9551.57,36180.02,32800.34,24421.22
1133270.2267,-4093.22,20586.68,9470.94,36147.55,32753.76,24376.68
1133270.2287,-4073.72,20563.51,9355.21,36138.35,32699.64,24336.2
1133270.2307,-4059.84,20553.54,9264.99,36140.3,32661.35,24314.12
1133270.2327,-4056.12,20534.66,9141.02,36130.58,32599.74,24278.12
1133270.2347,-4066.28,20573.24,9227.94,36155.7,32646.61,24318.51
1133270.2367,-4086.35,20595.46,9340.62,36162.24,32696.54,24353.55
1133270.2387,-4108.19,20611.24,9433.18,36171.73,32741.36,24385.84
1133270.2407,-4140.85,20631.84,9533.17,36180.93,32795.05,24422.6
1133270.2427,-4143.67,20611.57,9522.68,36166.67,32787.52,24413.49
1133270.2447,-4108.38,20579.48,9404.14,36153.8,32732.2,24371.2
1133270.2467,-4079.39,20558.55,9304.95,36145.36,32683.85,24331.14
1133270.2487,-4056.64,20528.13,9156.37,36129.0,32610.56,24280.93
1133270.2507,-4058.89,20551.73,9172.44,36147.17,32625.11,24301.77
1133270.2527,-4075.34,20588.73,9299.76,36164.81,32686.38,24346.93
1133270.2547,-4080.58,20608.38,9402.94,36178.97,32735.54,24383.74
1133270.2567,-4097.37,20625.26,9500.22,36188.42,32786.75,24421.55
1133270.2587,-4113.01,20616.01,9537.03,36178.16,32805.4,24426.7
1133270.2607,-4096.17,20582.96,9433.46,36158.76,32751.8,24384.84
1133270.2627,-4080.34,20557.41,9326.17,36146.84,32693.77,24339.73
1133270.2647,-4073.81,20522.41,9187.08,36125.81,32620.24,24286.8
1133270.2667,-4064.04,20529.22,9131.91,36137.39,32599.88,24289.99
1133270.2687,-4067.28,20579.77,9257.7,36172.82,32670.17,24347.98
1133270.2707,-4087.64,20598.03,9360.51,36174.97,32712.27,24373.68
1133270.2727,-4099.89,20613.39,9456.78,36175.02,32750.9,24391.99
1133270.2747,-4116.58,20623.59,9548.57,36176.54,32795.05,24416.88
1133270.2767,-4125.31,20583.11,9470.85,36155.51,32755.66,24383.93
1133270.2787,-4111.58,20553.64,9353.35,36140.64,32695.82,24337.44
1133270.2807,-4093.74,20534.85,9245.21,36136.11,32648.0,24304.06
1133270.2827,-4083.49,20522.36,9125.42,36130.72,32591.16,24272.16
1133270.2847,-4087.97,20558.6,9205.49,36153.23,32631.54,24308.59
1133270.2867,-4087.59,20595.7,9330.7,36171.25,32691.67,24352.03
1133270.2887,-4097.89,20610.57,9423.92,36179.21,32734.3,24383.74
1133270.2907,-4119.44,20627.21,9528.59,36188.42,32787.28,24423.51
1133270.2927,-4116.54,20608.95,9517.24,36178.55,32784.75,24414.78
1133270.2947,-4092.65,20568.61,9392.83,36156.32,32721.81,24363.23
1133270.2967,-4081.15,20544.25,9286.6,36145.17,32669.6,24323.9
1133270.2987,-4077.77,20512.54,9138.16,36127.19,32594.35,24276.78
1133270.3007,-4073.91,20542.29,9160.33,36147.65,32612.38,24301.82
1133270.3027,-4079.29,20581.39,9290.51,36168.87,32674.65,24344.3
1133270.3047,-4104.23,20595.98,9386.54,36166.96,32709.03,24363.19
1133270.3067,-4118.87,20612.53,9482.29,36173.97,32752.95,24393.18
1133270.3087,-4117.54,20604.71,9526.97,36169.72,32780.41,24410.16
1133270.3107,-4106.19,20560.89,9410.91,36141.35,32721.09,24366.19
1133270.3127,-4104.9,20533.47,9302.28,36129.77,32667.93,24326.33
1133270.3147,-4094.03,20508.96,9172.35,36123.9,32605.37,24286.03
1133270.3167,-4084.3,20526.22,9129.43,36143.31,32594.11,24290.8
1133270.3187,-4093.89,20569.09,9247.92,36169.44,32654.86,24338.2
1133270.3207,-4111.34,20582.54,9355.21,36167.34,32698.35,24361.52
1133270.3227,-4117.39,20600.04,9441.81,36174.25,32737.83,24386.55
1133270.3247,-4140.71,20609.33,9537.36,36176.69,32787.76,24418.12
1133270.3267,-4133.32,20575.29,9460.02,36157.18,32751.28,24383.83
1133270.3287,-4106.67,20546.58,9345.77,36143.26,32695.92,24343.97
1133270.3307,-4096.37,20524.65,9231.0,36135.44,32639.41,24304.15
1133270.3327,-4081.54,20509.01,9120.85,36130.19,32586.05,24274.3
1133270.3347,-4083.44,20540.91,9191.8,36149.7,32619.91,24303.39
1133270.3367,-4085.64,20574.76,9319.5,36169.63,32687.1,24354.75
1133270.3387,-4103.14,20592.02,9405.14,36177.45,32724.29,24382.17
1133270.3407,-4136.9,20613.39,9526.21,36183.74,32782.13,24419.02
1133270.3427,-4130.13,20591.69,9502.56,36166.82,32766.87,24399.09
1133270.3447,-4106.95,20562.32,9394.07,36153.75,32717.76,24361.52
1133270.3467,-4094.65,20545.39,9284.07,36153.75,32670.69,24325.76
1133270.3487,-4084.97,20517.97,9155.18,36139.06,32606.56,24284.89
1133270.3507,-4081.11,20526.36,9150.65,36143.16,32601.41,24284.13
1133270.3527,-4087.93,20567.47,9284.64,36165.72,32667.55,24332.24
1133270.3547,-4096.79,20590.93,9380.58,36176.35,32709.7,24361.99
1133270.3567,-4104.85,20618.49,9503.17,36195.0,32770.3,24407.29
1133270.3587,-4114.63,20614.1,9541.94,36191.94,32791.19,24417.93
1133270.3607,-4103.85,20590.07,9452.53,36179.45,32753.57,24390.03
1133270.3627,-4100.7,20555.93,9325.36,36157.8,32686.62,24335.67
1133270.3647,-4110.38,20516.54,9193.85,36128.72,32615.62,24280.5
1133270.3667,-4103.37,20516.06,9124.95,36131.43,32583.62,24267.68
1133270.3687,-4098.42,20561.13,9251.88,36159.62,32649.23,24319.51
1133270.3707,-4092.55,20582.63,9351.97,36166.0,32695.01,24351.08
1133270.3727,-4108.72,20602.28,9451.91,36173.87,32738.74,24382.69
1133270.3747,-4128.98,20612.62,9533.55,36182.36,32784.51,24410.11
1133270.3767,-4124.4,20582.06,9469.94,36165.24,32756.09,24382.59
1133270.3787,-4108.14,20552.11,9345.01,36148.98,32694.87,24336.72
1133270.3807,-4097.99,20538.0,9249.74,36144.36,32650.28,24303.15
1133270.3827,-4077.53,20516.83,9125.47,36133.01,32588.58,24267.29
1133270.3847,-4083.68,20552.3,9208.49,36155.66,32633.4,24303.77
1133270.3867,-4098.37,20579.48,9323.26,36169.72,32687.48,24339.35
1133270.3887,-4112.39,20598.94,9421.21,36178.02,32732.11,24371.05
1133270.3907,-4128.12,20616.53,9520.96,36186.27,32782.13,24407.34
1133270.3927,-4141.09,20597.6,9509.52,36171.97,32773.26,24394.99
1133270.3947,-4120.54,20560.17,9380.87,36150.03,32708.12,24343.49
1133270.3967,-4097.75,20541.86,9285.26,36140.02,32661.54,24307.21
1133270.3987,-4074.81,20512.15,9145.55,36125.19,32594.26,24263.53
1133270.4007,-4074.0,20533.99,9158.09,36140.97,32604.6,24276.78
1133270.4027,-4084.06,20572.33,9283.73,36161.86,32665.92,24319.13
1133270.4047,-4091.6,20594.27,9388.4,36168.29,32708.08,24353.22
1133270.4067,-4105.28,20610.62,9484.67,36172.06,32749.42,24381.31
1133270.4087,-4136.71,20599.32,9521.77,36163.05,32766.39,24387.65
1133270.4107,-4148.77,20574.38,9430.41,36154.89,32729.63,24359.47
1133270.4127,-4130.17,20548.58,9322.5,36145.26,32681.56,24322.18
1133270.4147,-4102.42,20516.11,9187.84,36128.43,32617.76,24275.12
1133270.4167,-4090.21,20509.96,9121.42,36127.91,32584.0,24258.57
1133270.4187,-4081.54,20552.83,9239.63,36153.8,32642.99,24309.11
1133270.4207,-4077.67,20585.68,9354.16,36172.35,32699.02,24349.6
1133270.4227,-4087.02,20605.8,9456.64,36180.64,32746.46,24380.88
1133270.4247,-4105.19,20616.01,9542.37,36182.88,32786.66,24406.48
1133270.4267,-4107.67,20588.59,9480.67,36170.68,32757.91,24384.12
1133270.4287,-4112.58,20548.78,9354.64,36146.55,32693.82,24331.57
1133270.4307,-4107.9,20521.93,9237.53,36127.57,32633.17,24283.98
1133270.4327,-4085.59,20513.11,9123.61,36122.61,32577.28,24253.09
1133270.4347,-4074.96,20550.92,9204.58,36142.74,32617.67,24285.99
1133270.4367,-4076.43,20581.3,9322.22,36163.76,32675.56,24330.29
1133270.4387,-4088.35,20589.26,9410.33,36160.85,32710.32,24353.94
1133270.4407,-4102.28,20606.23,9516.24,36170.44,32765.25,24389.89
1133270.4427,-4115.01,20590.83,9508.28,36158.57,32760.91,24382.55
1133270.4447,-4117.82,20557.69,9391.02,36140.97,32704.31,24340.92
1133270.4467,-4102.66,20538.24,9290.41,36133.58,32658.53,24306.2
1133270.4487,-4092.36,20511.11,9147.45,36117.84,32585.29,24257.14
1133270.4507,-4090.26,20527.08,9155.56,36130.86,32591.82,24266.44
1133270.4527,-4096.08,20561.98,9277.49,36151.94,32652.76,24308.68
1133270.4547,-4107.29,20593.41,9385.87,36168.01,32707.89,24348.69
1133270.4567,-4113.29,20611.0,9486.72,36179.83,32757.29,24382.64
1133270.4587,-4106.86,20603.09,9534.65,36173.2,32780.37,24396.28
1133270.4607,-4097.56,20561.41,9418.49,36147.07,32720.52,24352.51
1133270.4627,-4100.04,20537.95,9313.44,36132.29,32670.69,24312.64
1133270.4647,-4093.12,20511.73,9184.27,36119.8,32607.7,24268.3
1133270.4667,-4087.11,20511.2,9123.52,36122.37,32578.19,24257.33
1133270.4687,-4101.75,20544.2,9229.76,36139.49,32628.4,24295.57
1133270.4707,-4105.9,20569.76,9345.48,36152.51,32685.71,24333.15
1133270.4727,-4114.39,20581.44,9426.07,36155.99,32721.24,24355.27
1133270.4747,-4129.03,20597.89,9530.97,36163.05,32771.97,24391.22
1133270.4767,-4123.02,20574.81,9466.32,36153.27,32746.56,24369.43
1133270.4787,-4112.15,20548.3,9355.83,36142.4,32696.25,24330.91
1133270.4807,-4091.64,20528.99,9241.92,36133.01,32641.7,24289.23
1133270.4827,-4078.01,20506.29,9126.04,36121.8,32583.67,24253.51
1133270.4847,-4088.5,20528.84,9184.08,36134.53,32610.8,24273.64
1133270.4867,-4096.6,20567.71,9316.4,36155.99,32676.18,24319.94
1133270.4887,-4107.43,20596.41,9413.72,36174.68,32723.62,24357.99
1133270.4907,-4120.06,20619.73,9537.17,36188.89,32787.66,24403.62
1133270.4927,-4124.02,20588.45,9505.23,36165.53,32767.49,24382.07
1133270.4947,-4122.5,20557.07,9395.27,36147.84,32711.46,24338.01
1133270.4967,-4112.43,20536.33,9284.64,36138.11,32658.39,24295.67
1133270.4987,-4084.78,20508.96,9154.03,36122.76,32595.45,24258.09
1133270.5007,-4077.05,20522.5,9153.89,36139.4,32604.65,24273.73
1133270.5027,-4091.31,20563.46,9287.41,36163.95,32674.94,24326.04
1133270.5047,-4112.24,20577.81,9374.67,36160.76,32705.31,24343.06
1133270.5067,-4133.51,20602.04,9489.44,36167.53,32759.34,24379.07
1133270.5087,-4138.42,20600.99,9534.55,36167.86,32783.7,24396.18
1133270.5107,-4132.51,20567.32,9443.71,36155.28,32740.69,24368.0
1133270.5127,-4111.96,20542.1,9324.12,36145.5,32685.19,24325.09
1133270.5147,-4089.21,20515.4,9204.91,36131.82,32629.4,24285.75
1133270.5167,-4065.08,20510.1,9128.48,36130.72,32594.68,24270.44
1133270.5187,-4079.87,20556.07,9252.22,36156.61,32654.24,24316.22
1133270.5207,-4096.56,20584.01,9358.69,36169.39,32701.69,24351.08
1133270.5227,-4107.52,20600.99,9458.02,36178.59,32747.8,24384.69
1133270.5247,-4131.08,20605.33,9540.75,36176.4,32780.79,24401.48
1133270.5267,-4126.5,20574.76,9477.09,36155.9,32750.52,24375.16
1133270.5287,-4091.22,20543.53,9349.82,36137.01,32691.43,24325.8
1133270.5307,-4064.61,20528.56,9255.22,36136.63,32650.71,24296.91
1133270.5327,-4061.51,20507.39,9128.19,36128.24,32593.06,24263.91
1133270.5347,-4084.97,20542.05,9206.73,36150.79,32635.74,24299.91
1133270.5367,-4092.88,20575.0,9326.84,36164.53,32689.0,24335.05
1133270.5387,-4097.8,20595.51,9428.03,36175.97,32735.4,24368.72
1133270.5407,-4122.54,20605.95,9525.92,36180.07,32781.8,24396.47
1133270.5427,-4123.88,20597.94,9524.97,36178.88,32787.14,24398.52
1133270.5447,-4129.36,20549.2,9391.4,36148.36,32716.8,24341.97
1133270.5467,-4112.1,20541.48,9306.86,36149.7,32681.42,24315.93
1133270.5487,-4108.48,20511.06,9161.52,36128.24,32608.8,24265.72
1133270.5507,-4111.62,20526.32,9167.34,36135.58,32610.56,24274.26
1133270.5527,-4114.63,20566.85,9299.42,36161.14,32675.41,24320.22
1133270.5547,-4087.73,20592.41,9404.23,36176.73,32727.05,24362.23
1133270.5567,-4088.5,20604.99,9497.36,36182.22,32771.64,24394.99
1133270.5587,-4094.7,20606.81,9548.62,36184.65,32800.58,24411.16
1133270.5607,-4103.99,20567.61,9446.34,36160.71,32747.22,24366.05
1133270.5627,-4104.28,20540.53,9339.0,36144.17,32690.72,24321.7
1133270.5647,-4086.92,20513.82,9209.59,36128.91,32627.78,24275.59
1133270.5667,-4087.78,20506.1,9136.15,36125.62,32589.63,24255.8
1133270.5687,-4096.22,20555.88,9257.56,36155.85,32654.19,24307.68
1133270.5707,-4092.17,20585.73,9367.61,36170.96,32705.12,24346.07
1133270.5727,-4096.79,20607.14,9470.42,36183.93,32758.14,24384.64
1133270.5747,-4110.0,20622.92,9565.21,36195.9,32810.36,24423.13
1133270.5767,-4126.41,20575.81,9485.25,36158.38,32759.48,24377.92
1133270.5787,-4119.92,20553.11,9373.86,36146.31,32701.31,24332.72
1133270.5807,-4124.83,20527.99,9258.18,36128.24,32639.79,24285.65
1133270.5827,-4115.87,20508.72,9132.2,36117.13,32579.04,24251.37
1133270.5847,-4088.59,20545.29,9211.02,36137.92,32620.58,24287.04
1133270.5867,-4076.82,20575.1,9328.13,36150.75,32672.93,24325.56
1133270.5887,-4085.02,20590.83,9420.4,36156.71,32715.75,24358.23
