TimeStamp,Fpz,Gnd,Fz,Cz,CPz,POz
1133110.1258,-2674.96,24494.94,11032.53,39919.05,37365.58,27838.42
1133110.1278,-2662.37,24533.89,11223.99,39941.03,37435.82,27877.52
1133110.1298,-2685.12,24551.44,11345.2,39945.18,37476.97,27901.18
1133110.1318,-2691.36,24583.44,11530.69,39963.92,37548.5,27943.95
1133110.1338,-2680.64,24551.06,11501.12,39945.32,37532.81,27929.93
1133110.1358,-2692.08,24506.71,11329.51,39912.04,37454.66,27878.67
1133110.1378,-2685.31,24479.87,11164.24,39898.59,37388.19,27835.04
1133110.1398,-2657.37,24449.21,10971.98,39886.43,37327.77,27805.76
1133110.1418,-2639.06,24469.09,10964.35,39906.55,37338.69,27822.35
1133110.1438,-2642.77,24511.86,11163.05,39932.16,37408.83,27865.03
1133110.1458,-2671.43,24533.7,11298.47,39938.26,37452.18,27892.16
1133110.1478,-2705.19,24565.18,11470.22,39955.0,37515.31,27929.02
1133110.1498,-2721.98,24560.65,11532.5,39949.56,37535.91,27934.22
1133110.1518,-2730.32,24515.58,11384.2,39920.72,37474.45,27887.59
1133110.1538,-2671.43,24483.02,11208.82,39906.65,37410.45,27844.34
1133110.1558,-2616.02,24454.31,11043.69,39902.83,37358.38,27815.63
1133110.1578,-2626.13,24442.48,10924.25,39905.51,37324.34,27807.62
1133110.1598,-2668.48,24499.13,11109.88,39929.3,37392.43,27849.39
1133110.1618,-2681.68,24531.03,11264.33,39942.65,37445.69,27883.34
1133110.1638,-2681.21,24548.72,11405.99,39946.42,37489.51,27908.61
1133110.1658,-2711.68,24559.5,11529.92,39944.99,37532.24,27930.6
1133110.1678,-2748.68,24526.12,11442.61,39921.19,37494.47,27900.99
1133110.1698,-2723.65,24490.31,11256.41,39902.6,37423.04,27853.35
1133110.1718,-2675.82,24459.65,11114.46,39898.02,37376.55,27821.83
1133110.1738,-2645.45,24431.47,10916.19,39890.15,37317.95,27793.89
1133110.1758,-2626.99,24482.54,11035.73,39919.86,37367.25,27833.04
1133110.1778,-2638.77,24516.63,11212.59,39935.21,37429.1,27873.61
1133110.1798,-2671.43,24537.85,11352.25,39937.88,37471.35,27898.41
1133110.1818,-2718.07,24562.22,11498.98,39946.75,37522.46,27928.07
1133110.1838,-2720.4,24541.43,11496.45,39935.26,37519.55,27917.01
1133110.1858,-2691.51,24490.07,11312.44,39908.6,37447.31,27864.36
1133110.1878,-2678.49,24472.48,11174.58,39904.98,37399.25,27834.85
1133110.1898,-2667.38,24435.95,10956.96,39891.53,37329.01,27803.38
1133110.1918,-2677.39,24452.88,10964.59,39907.51,37336.64,27814.92
1133110.1938,-2694.65,24499.71,11152.94,39927.87,37402.92,27853.44
1133110.1958,-2701.24,24531.18,11305.76,39939.31,37456.61,27887.59
1133110.1978,-2704.24,24550.39,11449.24,39944.89,37506.11,27916.58
1133110.1998,-2705.15,24548.34,11529.26,39943.18,37533.38,27928.88
1133110.2018,-2679.21,24502.9,11379.86,39922.19,37476.78,27889.92
1133110.2038,-2667.38,24477.68,11225.56,39909.18,37415.56,27852.59
1133110.2058,-2658.8,24441.67,11035.59,39891.72,37347.46,27817.3
1133110.2078,-2649.74,24443.3,10928.82,39895.87,37317.66,27809.67
1133110.2098,-2657.75,24504.38,11107.54,39929.82,37388.62,27856.35
1133110.2118,-2679.21,24531.56,11266.61,39943.13,37445.93,27884.58
1133110.2138,-2712.11,24537.95,11392.79,39937.41,37481.07,27900.03
1133110.2158,-2741.48,24558.5,11540.08,39947.04,37534.77,27930.98
1133110.2178,-2753.54,24525.36,11454.97,39929.25,37502.39,27908.95
1133110.2198,-2724.5,24491.69,11287.26,39917.14,37441.07,27868.7
1133110.2218,-2675.63,24453.88,11117.13,39902.45,37379.84,27828.12
1133110.2238,-2644.11,24427.99,10921.86,39890.25,37315.28,27803.47
1133110.2258,-2631.71,24476.48,11035.25,39920.57,37365.92,27841.29
1133110.2278,-2654.84,24517.92,11220.65,39938.88,37429.15,27878.43
1133110.2298,-2670.0,24536.23,11355.45,39943.65,37471.3,27904.08
1133110.2318,-2706.24,24561.07,11514.86,39955.57,37534.53,27936.32
1133110.2338,-2716.45,24537.95,11512.66,39943.08,37529.62,27926.16
1133110.2358,-2698.85,24488.36,11329.37,39908.22,37449.98,27870.94
1133110.2378,-2677.58,24469.81,11181.88,39903.65,37399.25,27835.23
1133110.2398,-2655.46,24432.76,10971.6,39892.3,37331.92,27802.38
1133110.2418,-2650.79,24449.02,10971.07,39902.88,37334.92,27814.34
1133110.2438,-2657.03,24497.89,11162.95,39923.53,37401.39,27854.49
1133110.2458,-2670.86,24520.3,11306.29,39931.35,37446.22,27878.34
1133110.2478,-2706.38,24542.53,11445.33,39937.41,37495.33,27906.56
1133110.2498,-2739.48,24545.77,11534.84,39932.68,37526.04,27919.44
1133110.2518,-2711.25,24503.04,11381.87,39910.27,37467.87,27879.53
1133110.2538,-2697.52,24482.63,11241.72,39909.18,37417.89,27847.2
1133110.2558,-2721.79,24451.12,11054.66,39899.45,37355.24,27813.72
1133110.2578,-2679.87,24435.71,10934.74,39895.16,37317.9,27803.33
1133110.2598,-2650.31,24474.29,11093.76,39909.8,37369.06,27837.28
1133110.2618,-2687.55,24505.43,11262.32,39920.14,37424.19,27866.51
1133110.2638,-2685.55,24531.89,11383.87,39929.54,37471.25,27896.55
1133110.2658,-2688.03,24555.45,11545.75,39939.69,37532.14,27928.93
1133110.2678,-2689.17,24505.95,11440.56,39910.32,37486.13,27893.4
1133110.2698,-2694.56,24467.42,11268.0,39885.33,37415.65,27842.57
1133110.2718,-2690.22,24437.1,11097.91,39876.47,37355.95,27805.14
1133110.2738,-2679.63,24416.07,10929.97,39878.33,37307.27,27790.5
1133110.2758,-2684.93,24458.17,11025.1,39905.36,37348.27,27824.98
1133110.2778,-2702.67,24498.04,11211.83,39916.95,37408.74,27860.07
1133110.2798,-2718.16,24522.12,11340.52,39924.53,37455.04,27885.39
1133110.2818,-2731.85,24553.35,11519.2,39935.36,37516.22,27916.39
1133110.2838,-2729.27,24526.65,11497.69,39920.72,37507.2,27906.71
1133110.2858,-2704.05,24482.4,11327.7,39895.3,37442.26,27860.79
1133110.2878,-2658.51,24455.03,11161.42,39882.81,37379.94,27822.69
1133110.2898,-2633.24,24423.94,10977.17,39874.37,37322.33,27794.32
1133110.2918,-2634.33,24437.81,10955.48,39888.24,37322.1,27803.04
1133110.2938,-2668.67,24488.26,11156.18,39911.94,37393.62,27847.01
1133110.2958,-2692.7,24514.96,11297.13,39918.24,37436.54,27876.19
1133110.2978,-2690.51,24548.58,11466.7,39937.21,37501.05,27911.95
1133110.2998,-2727.6,24526.65,11520.58,39912.56,37502.72,27898.98
1133110.3018,-2737.24,24481.97,11388.45,39893.35,37451.99,27868.08
1133110.3038,-2722.26,24458.36,11215.88,39886.19,37393.0,27828.6
1133110.3058,-2721.12,24437.0,11054.66,39879.28,37342.03,27802.85
1133110.3078,-2700.62,24421.03,10918.81,39876.37,37300.54,27790.69
1133110.3098,-2678.39,24483.54,11103.44,39910.99,37373.45,27838.76
1133110.3118,-2690.94,24514.34,11256.6,39918.62,37422.76,27865.6
1133110.3138,-2721.26,24532.99,11396.89,39924.53,37471.16,27890.88
1133110.3158,-2701.71,24541.33,11525.44,39928.06,37516.79,27914.48
1133110.3178,-2662.37,24514.25,11454.97,39913.33,37492.76,27895.93
1133110.3198,-2637.24,24478.3,11269.95,39900.69,37426.67,27853.49
1133110.3218,-2640.39,24456.03,11131.67,39892.82,37377.22,27825.84
1133110.3238,-2648.31,24415.97,10920.43,39870.79,37302.12,27787.45
1133110.3258,-2658.08,24459.84,11028.2,39892.3,37340.36,27817.01
1133110.3278,-2670.72,24498.27,11210.16,39914.52,37405.45,27856.02
1133110.3298,-2694.32,24523.64,11351.73,39921.81,37453.85,27882.34
1133110.3318,-2721.07,24542.29,11491.2,39931.49,37506.87,27909.09
1133110.3338,-2731.99,24525.22,11503.13,39919.62,37506.49,27901.08
1133110.3358,-2744.1,24482.68,11327.08,39895.54,37437.63,27854.49
1133110.3378,-2710.2,24474.67,11197.76,39900.36,37397.44,27830.89
1133110.3398,-2689.7,24421.17,10971.17,39873.99,37315.42,27787.21
1133110.3418,-2705.19,24436.38,10957.86,39885.67,37317.61,27798.61
1133110.3438,-2707.29,24484.92,11145.02,39911.51,37386.61,27843.72
1133110.3458,-2696.32,24516.97,11301.61,39922.77,37439.3,27876.9
1133110.3478,-2711.82,24541.43,11449.0,39934.35,37496.09,27910.0
1133110.3498,-2715.97,24551.78,11541.51,39936.59,37529.85,27925.07
1133110.3518,-2685.36,24493.36,11389.5,39908.08,37468.53,27882.1
1133110.3538,-2673.34,24453.74,11228.66,39889.77,37403.25,27836.37
1133110.3558,-2664.28,24424.7,11040.16,39874.84,37336.88,27802.28
1133110.3578,-2649.83,24429.56,10925.15,39882.62,37307.6,27802.04
1133110.3598,-2663.61,24478.63,11087.85,39908.22,37367.92,27842.81
1133110.3618,-2671.53,24511.77,11261.27,39927.63,37432.68,27883.53
1133110.3638,-2700.47,24528.94,11396.03,39930.97,37477.16,27905.9
1133110.3658,-2716.11,24548.91,11539.13,39939.93,37532.91,27935.17
1133110.3678,-2720.31,24524.12,11467.32,39929.25,37510.54,27918.58
1133110.3698,-2718.74,24488.6,11294.32,39908.84,37441.07,27867.75
1133110.3718,-2690.08,24454.98,11133.86,39897.3,37382.75,27828.27
1133110.3738,-2652.22,24424.41,10939.17,39892.11,37321.14,27802.23
1133110.3758,-2658.03,24466.66,11030.53,39914.18,37358.72,27831.46
1133110.3778,-2662.52,24512.2,11218.55,39929.92,37423.14,27870.85
1133110.3798,-2665.47,24529.41,11350.59,39933.35,37466.1,27897.89
1133110.3818,-2693.84,24552.25,11507.94,39945.18,37522.61,27928.07
1133110.3838,-2711.68,24533.75,11513.52,39932.16,37520.89,27917.29
1133110.3858,-2716.59,24494.32,11348.01,39914.33,37454.04,27873.57
1133110.3878,-2696.51,24473.62,11205.01,39907.17,37402.06,27839.23
1133110.3898,-2656.27,24428.32,10987.38,39888.05,37329.73,27802.66
1133110.3918,-2648.78,24448.25,10971.4,39901.88,37332.4,27815.73
1133110.3938,-2660.42,24503.85,11166.05,39927.15,37402.68,27859.02
1133110.3958,-2673.91,24523.12,11311.82,39930.78,37448.08,27880.24
1133110.3978,-2686.12,24544.91,11446.76,39937.88,37495.81,27909.66
1133110.3998,-2716.54,24550.2,11550.38,39943.18,37537.58,27929.17
1133110.4018,-2728.99,24502.85,11400.75,39917.62,37479.69,27889.92
1133110.4038,-2705.1,24485.83,11253.5,39911.08,37426.86,27857.59
1133110.4058,-2685.36,24437.38,11049.89,39884.62,37350.47,27809.58
1133110.4078,-2662.75,24415.59,10918.19,39879.23,37310.13,27796.51
1133110.4098,-2672.77,24473.34,11078.79,39908.94,37373.31,27840.28
1133110.4118,-2717.54,24512.1,11256.51,39925.58,37432.15,27876.19
1133110.4138,-2733.61,24536.99,11379.62,39936.21,37475.21,27904.37
1133110.4158,-2714.83,24560.88,11543.08,39944.8,37534.72,27938.18
1133110.4178,-2706.0,24522.74,11451.96,39921.77,37500.29,27916.1
1133110.4198,-2682.07,24487.21,11282.11,39899.45,37437.78,27869.42
1133110.4218,-2660.94,24450.5,11109.54,39886.77,37370.83,27827.27
1133110.4238,-2660.7,24427.56,10930.21,39880.81,37310.75,27805.76
1133110.4258,-2663.47,24468.85,11007.45,39905.12,37342.6,27832.23
1133110.4278,-2684.07,24506.24,11200.19,39920.91,37406.12,27867.65
1133110.4298,-2713.01,24524.45,11329.51,39931.02,37448.84,27891.11
1133110.4318,-2727.89,24560.65,11508.42,39947.75,37517.93,27930.93
1133110.4338,-2731.75,24537.61,11499.5,39931.68,37514.17,27921.87
1133110.4358,-2711.58,24496.46,11334.56,39907.75,37449.22,27875.62
1133110.4378,-2687.03,24476.39,11171.87,39896.97,37388.23,27841.29
1133110.4398,-2653.27,24448.59,10988.67,39887.91,37329.34,27815.92
1133110.4418,-2635.48,24457.46,10949.99,39899.26,37323.53,27819.35
1133110.4438,-2659.75,24509.19,11154.22,39931.21,37399.63,27865.84
1133110.4458,-2686.69,24522.74,11281.21,39926.06,37433.91,27882.05
1133110.4478,-2704.48,24549.34,11444.86,39940.84,37493.04,27915.77
1133110.4498,-2731.37,24551.39,11527.64,39936.36,37520.17,27925.45
1133110.4518,-2733.18,24514.63,11397.94,39913.85,37470.01,27888.11
1133110.4538,-2714.78,24473.96,11215.02,39896.06,37401.35,27844.15
1133110.4558,-2684.21,24440.96,11051.51,39885.91,37345.94,27811.91
1133110.4578,-2655.08,24422.27,10903.07,39877.99,37296.73,27789.83
1133110.4598,-2683.45,24474.96,11076.21,39903.6,37356.43,27828.12
1133110.4618,-2716.97,24514.63,11241.68,39921.0,37413.51,27864.6
1133110.4638,-2724.41,24539.81,11393.6,39937.21,37472.73,27900.89
1133110.4658,-2709.63,24557.74,11532.74,39952.0,37527.37,27934.46
1133110.4678,-2697.85,24518.83,11463.45,39927.39,37497.81,27907.61
1133110.4698,-2682.21,24469.95,11266.14,39900.69,37419.75,27851.2
1133110.4718,-2672.67,24458.36,11135.96,39901.31,37375.93,27827.41
1133110.4738,-2661.13,24432.61,10932.59,39897.83,37317.42,27804.85
1133110.4758,-2681.3,24464.37,11017.75,39914.66,37347.85,27828.08
1133110.4778,-2692.75,24507.72,11202.67,39931.11,37409.98,27866.08
1133110.4798,-2695.75,24532.03,11344.29,39935.4,37458.0,27893.12
1133110.4818,-2698.85,24551.11,11485.63,39943.13,37508.73,27923.06
1133110.4838,-2708.63,24537.18,11511.09,39939.22,37519.27,27926.59
1133110.4858,-2707.86,24494.65,11338.0,39915.47,37455.75,27882.87
1133110.4878,-2689.22,24469.81,11191.46,39901.45,37399.01,27845.91
1133110.4898,-2672.96,24426.75,10974.93,39881.76,37323.38,27808.62
1133110.4918,-2674.48,24440.34,10949.04,39892.49,37317.47,27816.11
1133110.4938,-2706.38,24493.32,11136.58,39917.86,37386.85,27858.07
1133110.4958,-2738.71,24525.22,11298.8,39933.73,37443.31,27888.11
1133110.4978,-2737.57,24546.34,11448.1,39943.41,37494.04,27918.49
1133110.4998,-2741.86,24554.92,11547.38,39943.37,37529.28,27934.75
1133110.5018,-2721.45,24507.48,11408.24,39922.86,37478.12,27899.03
1133110.5038,-2692.89,24484.35,11259.22,39919.29,37428.1,27867.65
1133110.5058,-2673.63,24453.83,11070.4,39899.26,37360.72,27831.13
1133110.5078,-2630.19,24444.92,10929.92,39896.16,37315.56,27818.06
1133110.5097,-2626.99,24493.13,11087.71,39923.72,37376.55,27859.45
1133110.5117,-2641.2,24521.83,11253.12,39933.83,37431.44,27888.02
1133110.5137,-2675.58,24539.81,11383.06,39938.41,37472.73,27904.94
1133110.5157,-2701.33,24567.03,11540.94,39951.33,37531.48,27937.51
1133110.5177,-2697.09,24520.21,11456.54,39923.05,37497.33,27909.23
1133110.5197,-2688.36,24476.2,11281.63,39901.07,37424.52,27860.22
1133110.5217,-2682.69,24451.26,11130.57,39893.3,37370.4,27826.17
1133110.5237,-2686.41,24428.99,10936.07,39890.91,37311.18,27805.52
1133110.5257,-2697.52,24469.71,11020.23,39915.18,37347.04,27835.42
1133110.5277,-2691.08,24505.52,11201.72,39927.49,37405.64,27869.18
1133110.5297,-2702.47,24513.25,11330.08,39928.3,37446.84,27887.68
1133110.5317,-2714.11,24540.14,11488.63,39940.84,37504.96,27919.68
1133110.5337,-2711.49,24526.07,11511.57,39934.02,37516.5,27919.82
1133110.5357,-2714.54,24483.73,11343.19,39914.99,37451.84,27878.14
1133110.5377,-2705.96,24459.98,11197.43,39901.55,37392.81,27838.14
1133110.5397,-2694.99,24424.17,10988.95,39888.01,37321.76,27799.09
1133110.5417,-2684.31,24442.72,10960.87,39905.98,37322.91,27810.86
1133110.5437,-2683.35,24493.03,11153.27,39928.73,37390.47,27852.59
1133110.5457,-2682.59,24522.83,11305.91,39937.93,37441.54,27880.29
1133110.5477,-2693.27,24543.43,11439.28,39948.66,37490.09,27908.76
1133110.5497,-2715.11,24545.86,11548.23,39942.27,37522.51,27922.49
1133110.5517,-2718.21,24504.9,11403.23,39912.56,37465.2,27880.96
1133110.5537,-2690.6,24476.96,11252.93,39901.5,37407.93,27845.29
1133110.5557,-2682.88,24440.34,11065.34,39888.67,37340.36,27807.81
1133110.5577,-2677.06,24426.89,10928.78,39888.39,37299.83,27794.36
1133110.5597,-2671.96,24475.53,11080.41,39916.42,37359.91,27833.89
1133110.5617,-2685.21,24507.0,11252.83,39927.68,37418.75,27868.61
1133110.5637,-2688.22,24528.89,11373.09,39930.06,37456.33,27890.16
1133110.5657,-2683.5,24552.4,11542.37,39940.22,37520.79,27926.5
1133110.5677,-2673.63,24525.22,11473.13,39930.63,37499.19,27914.48
1133110.5697,-2696.28,24468.62,11288.45,39895.59,37421.37,27860.55
1133110.5717,-2691.41,24440.91,11118.7,39879.85,37354.33,27820.16
1133110.5737,-2673.82,24419.84,10946.13,39881.09,37304.45,27798.75
1133110.5757,-2659.85,24468.57,11018.9,39913.85,37343.51,27833.18
1133110.5777,-2677.01,24506.67,11206.06,39932.11,37409.26,27870.99
1133110.5797,-2692.08,24520.78,11327.6,39933.26,37447.03,27892.35
1133110.5817,-2700.38,24556.74,11509.75,39952.33,37517.12,27933.46
1133110.5837,-2707.29,24528.84,11510.61,39933.4,37517.46,27927.31
1133110.5857,-2714.35,24480.39,11344.96,39906.65,37450.6,27882.29
1133110.5877,-2687.79,24458.36,11176.64,39891.63,37384.09,27837.42
1133110.5897,-2660.85,24432.66,11000.68,39883.43,37325.53,27806.43
1133110.5917,-2670.15,24444.49,10949.04,39890.63,37311.46,27804.52
1133110.5937,-2688.46,24509.24,11162.04,39923.29,37388.71,27850.3
1133110.5957,-2687.65,24532.61,11307.53,39933.02,37435.15,27879.05
1133110.5977,-2693.13,24561.46,11467.65,39940.12,37489.61,27909.85
1133110.5997,-2686.21,24561.36,11546.66,39930.25,37515.12,27915.91
1133110.6017,-2650.88,24521.5,11421.87,39907.27,37463.0,27878.24
1133110.6037,-2618.84,24478.53,11238.77,39888.15,37389.71,27828.27
1133110.6057,-2588.32,24461.22,11090.52,39885.43,37336.88,27801.61
1133110.6077,-2561.66,24462.75,10942.98,39890.68,37294.11,27793.6
1133110.6097,-2587.89,24514.44,11112.83,39919.86,37359.43,27836.9
1133110.6117,-2594.19,24552.49,11282.83,39933.16,37418.99,27871.04
1133110.6137,-2602.15,24573.9,11422.35,39936.83,37463.86,27896.17
1133110.6157,-2628.66,24587.3,11552.96,39938.12,37511.16,27921.01
1133110.6177,-2635.29,24572.09,11508.08,39928.92,37498.96,27911.86
1133110.6197,-2605.96,24517.68,11310.24,39895.49,37415.89,27850.44
1133110.6217,-2557.66,24498.13,11174.78,39887.05,37369.45,27821.97
1133110.6237,-2524.47,24468.85,10966.97,39880.28,37304.17,27796.51
1133110.6257,-2547.31,24493.51,11035.35,39893.35,37325.58,27811.63
1133110.6277,-2560.0,24538.47,11224.13,39917.76,37396.24,27856.69
1133110.6297,-2571.58,24564.56,11367.51,39925.53,37443.59,27882.72
1133110.6317,-2590.9,24588.16,11508.32,39933.26,37495.76,27906.04
1133110.6337,-2621.46,24586.63,11547.57,39929.11,37510.97,27909.95
1133110.6357,-2622.37,24547.72,11379.43,39907.32,37448.12,27865.79
1133110.6377,-2576.35,24517.73,11238.53,39897.49,37396.39,27833.23
1133110.6397,-2542.35,24475.01,11025.14,39876.42,37315.42,27789.21
1133110.6417,-2533.29,24493.89,10991.86,39890.06,37309.22,27799.9
1133110.6437,-2540.06,24548.01,11179.31,39920.57,37381.84,27846.53
1133110.6457,-2545.26,24573.42,11329.51,39922.81,37428.19,27869.7
1133110.6477,-2573.3,24585.06,11468.32,39927.39,37477.45,27894.69
1133110.6497,-2560.09,24599.27,11585.9,39934.54,37521.18,27918.63
1133110.6517,-2557.56,24548.34,11447.34,39907.89,37466.72,27882.87
1133110.6537,-2566.43,24514.11,11280.92,39888.53,37398.77,27836.85
1133110.6557,-2548.27,24492.27,11107.35,39882.86,37342.51,27804.19
1133110.6577,-2509.17,24486.97,10967.3,39889.25,37303.74,27795.79
1133110.6597,-2518.65,24520.92,11106.78,39905.98,37351.8,27826.12
1133110.6617,-2530.34,24550.58,11274.91,39913.61,37404.64,27855.26
1133110.6637,-2531.48,24572.61,11409.47,39922.39,37452.99,27883.77
1133110.6657,-2554.27,24594.07,11565.16,39932.54,37509.26,27915.19
1133110.6677,-2576.3,24554.78,11498.36,39908.94,37478.4,27886.92
1133110.6697,-2577.78,24519.49,11326.93,39890.96,37411.84,27842.33
1133110.6717,-2563.95,24489.69,11165.86,39875.32,37352.09,27801.14
1133110.6737,-2560.81,24460.46,10967.07,39868.17,37288.19,27773.72
1133110.6757,-2580.02,24499.8,11037.64,39892.87,37319.66,27799.75
1133110.6777,-2593.37,24538.47,11228.09,39909.08,37384.51,27836.56
1133110.6797,-2606.11,24549.15,11360.93,39914.47,37426.52,27858.98
1133110.6817,-2604.44,24583.49,11520.82,39930.01,37488.51,27898.6
1133110.6837,-2601.24,24567.08,11545.99,39915.38,37496.38,27893.69
1133110.6857,-2603.29,24522.07,11377.24,39892.06,37433.1,27849.01
1133110.6877,-2591.37,24498.94,11230.99,39885.19,37380.18,27815.97
1133110.6897,-2559.76,24446.59,11014.03,39861.64,37303.26,27772.33
1133110.6917,-2525.9,24451.88,10961.34,39865.31,37287.62,27771.81
1133110.6937,-2546.6,24502.9,11153.41,39891.25,37356.48,27815.01
1133110.6957,-2582.26,24527.74,11305.48,39898.4,37404.92,27840.19
1133110.6977,-2603.58,24556.93,11443.33,39914.85,37459.47,27878.67
1133110.6997,-2619.41,24561.55,11562.4,39918.0,37506.49,27900.03
1133110.7017,-2622.99,24516.35,11423.4,39889.48,37448.89,27857.83
1133110.7037,-2613.88,24484.69,11259.6,39870.03,37382.61,27815.44
1133110.7057,-2595.62,24443.96,11074.12,39854.82,37314.13,27781.35
1133110.7077,-2576.92,24423.89,10927.96,39849.52,37264.73,27766.42
1133110.7097,-2570.39,24471.14,11072.88,39875.99,37316.95,27803.57
1133110.7117,-2593.04,24497.32,11241.96,39882.43,37372.31,27830.32
1133110.7137,-2608.01,24526.36,11375.05,39897.35,37425.86,27863.17
1133110.7157,-2632.33,24557.12,11552.29,39923.58,37501.96,27904.47
1133110.7177,-2659.23,24502.28,11462.64,39887.67,37459.81,27867.94
1133110.7197,-2652.26,24462.13,11295.51,39866.26,37393.29,27821.88
1133110.7217,-2670.57,24433.81,11134.44,39856.82,37333.64,27783.92
1133110.7237,-2684.97,24399.43,10944.99,39845.28,37270.98,27753.88
1133110.7257,-2695.37,24428.9,10987.86,39861.64,37292.58,27781.16
1133110.7277,-2676.82,24473.57,11177.97,39878.75,37362.44,27822.12
1133110.7297,-2640.68,24495.03,11308.53,39886.57,37406.64,27847.25
1133110.7317,-2648.69,24510.39,11472.8,39889.67,37463.34,27878.19
1133110.7337,-2671.48,24497.61,11496.83,39889.25,37480.88,27888.49
1133110.7357,-2695.7,24443.34,11328.65,39856.87,37411.84,27839.71
1133110.7377,-2668.86,24411.49,11160.85,39842.71,37345.22,27797.75
1133110.7397,-2665.42,24378.54,10980.61,39830.31,37283.62,27765.71
1133110.7417,-2674.1,24385.26,10911.28,39835.93,37264.4,27767.47
1133110.7437,-2680.25,24436.76,11107.78,39859.82,37333.16,27811.29
1133110.7457,-2686.98,24465.18,11256.6,39872.13,37387.57,27844.24
1133110.7477,-2715.21,24483.25,11404.52,39877.66,37439.97,27870.37
1133110.7497,-2733.04,24485.88,11500.5,39876.75,37473.35,27880.53
1133110.7517,-2704.57,24457.17,11395.27,39865.64,37439.73,27856.54
1133110.7537,-2683.5,24418.02,11210.73,39847.33,37371.02,27813.49
1133110.7557,-2696.42,24386.98,11059.14,39834.69,37312.46,27778.06
1133110.7577,-2675.96,24365.86,10891.34,39827.49,37258.53,27756.98
1133110.7597,-2669.95,24421.74,11056.62,39865.93,37328.3,27804.04
1133110.7617,-2679.78,24448.49,11216.31,39876.89,37380.99,27830.89
1133110.7637,-2735.71,24459.51,11343.77,39870.65,37415.13,27848.06
1133110.7657,-2787.78,24473.81,11478.76,39874.22,37465.29,27873.95
1133110.7677,-2779.29,24449.78,11438.18,39862.69,37449.36,27860.79
1133110.7697,-2736.28,24410.97,11254.74,39844.61,37377.98,27816.49
1133110.7717,-2705.15,24380.69,11112.12,39830.98,37325.72,27780.63
1133110.7737,-2694.42,24337.58,10892.63,39816.38,37254.1,27743.15
1133110.7757,-2681.83,24394.94,10972.17,39848.09,37294.96,27779.3
1133110.7777,-2697.8,24447.3,11167.38,39876.42,37368.59,27826.17
1133110.7797,-2725.46,24464.51,11309.29,39881.38,37413.79,27851.2
1133110.7817,-2738.48,24485.64,11451.82,39892.92,37462.76,27881.2
1133110.7837,-2753.59,24469.57,11492.78,39879.18,37470.35,27877.86
1133110.7857,-2758.22,24415.93,11317.4,39844.57,37397.44,27828.27
1133110.7877,-2756.26,24385.17,11165.05,39831.31,37340.41,27793.03
1133110.7897,-2720.59,24357.08,10962.3,39822.3,37279.75,27764.04
1133110.7917,-2714.73,24369.34,10911.7,39834.65,37271.74,27771.0
1133110.7937,-2712.92,24405.05,11083.41,39850.53,37327.96,27803.62
1133110.7957,-2696.99,24431.28,11237.57,39858.87,37377.74,27832.51
1133110.7977,-2709.68,24453.12,11382.72,39866.07,37430.2,27862.36
1133110.7997,-2710.77,24460.46,11496.02,39873.27,37473.35,27886.25
1133110.8017,-2711.01,24419.22,11372.38,39853.72,37427.91,27856.16
1133110.8037,-2720.4,24384.22,11205.91,39833.12,37359.05,27805.0
1133110.8057,-2709.96,24351.98,11028.96,39813.95,37291.34,27761.41
1133110.8077,-2706.48,24343.26,10884.81,39819.29,37252.91,27753.31
1133110.8097,-2705.77,24402.34,11038.26,39860.68,37324.91,27807.86
1133110.8117,-2723.27,24433.76,11207.15,39872.7,37382.85,27841.76
1133110.8137,-2745.49,24447.4,11333.85,39875.61,37422.23,27861.88
1133110.8157,-2745.58,24480.68,11504.79,39898.73,37490.42,27898.7
1133110.8177,-2757.55,24436.81,11439.09,39866.83,37457.38,27862.84
1133110.8197,-2768.61,24390.75,11260.84,39843.09,37382.8,27812.44
1133110.8217,-2764.32,24367.14,11110.69,39836.51,37329.96,27778.2
1133110.8237,-2741.19,24348.6,10917.81,39834.17,37273.17,27760.65
1133110.8257,-2739.43,24378.97,10971.6,39853.86,37297.44,27782.92
1133110.8277,-2757.84,24427.8,11162.38,39872.22,37361.2,27821.59
1133110.8297,-2765.56,24434.9,11285.97,39866.88,37397.58,27841.0
1133110.8317,-2750.64,24451.83,11434.84,39875.94,37452.56,27871.66
1133110.8337,-2755.26,24440.77,11480.33,39871.27,37469.11,27876.33
1133110.8357,-2768.37,24409.3,11324.69,39856.72,37415.51,27843.76
1133110.8377,-2786.49,24377.54,11163.76,39831.02,37343.98,27790.6
1133110.8397,-2738.86,24340.54,10960.63,39814.1,37271.41,27755.17
1133110.8417,-2702.57,24343.02,10899.12,39821.82,37258.3,27756.89
1133110.8437,-2702.9,24394.56,11084.61,39846.71,37329.2,27803.38
1133110.8457,-2717.92,24422.74,11242.34,39857.11,37383.47,27837.04
1133110.8477,-2749.87,24442.25,11366.42,39861.87,37424.28,27860.17
1133110.8497,-2773.38,24450.59,11487.49,39859.11,37464.72,27877.76
1133110.8517,-2761.17,24406.39,11360.89,39838.13,37416.13,27845.2
1133110.8537,-2742.15,24370.82,11198.67,39821.68,37355.38,27805.24
1133110.8557,-2753.31,24337.01,11018.95,39802.99,37283.81,27762.27
1133110.8577,-2742.82,24321.99,10872.99,39802.27,37238.98,27747.78
1133110.8597,-2736.66,24372.68,11008.22,39836.17,37299.3,27790.5
1133110.8617,-2749.78,24411.01,11187.84,39853.01,37362.1,27826.31
1133110.8637,-2768.47,24433.19,11317.97,39862.45,37407.64,27851.16
1133110.8657,-2795.51,24451.02,11486.1,39871.75,37470.15,27884.06
1133110.8677,-2801.99,24422.98,11431.17,39855.48,37448.84,27865.94
1133110.8697,-2796.46,24383.69,11261.42,39833.22,37381.46,27820.64
1133110.8717,-2777.72,24353.32,11098.2,39825.16,37322.43,27786.93
1133110.8737,-2762.41,24323.75,10911.61,39815.38,37261.44,27758.08
1133110.8757,-2762.03,24356.03,10948.18,39835.36,37282.38,27776.91
1133110.8777,-2803.18,24406.05,11149.69,39863.83,37359.19,27822.16
1133110.8797,-2780.63,24435.57,11286.59,39876.94,37407.45,27851.92
1133110.8817,-2745.29,24460.7,11454.77,39885.24,37468.1,27887.87
1133110.8837,-2740.57,24438.1,11474.18,39866.5,37470.54,27882.63
1133110.8857,-2741.38,24388.98,11314.63,39838.41,37403.25,27837.28
1133110.8877,-2728.7,24362.71,11151.98,39823.97,37339.26,27792.6
1133110.8897,-2722.98,24338.2,10982.32,39814.29,37283.47,27765.8
1133110.8917,-2713.54,24338.01,10895.06,39818.86,37258.06,27759.36
1133110.8937,-2724.55,24388.7,11085.99,39845.42,37328.53,27801.47
1133110.8957,-2751.3,24412.35,11230.33,39853.58,37375.17,27825.79
1133110.8977,-2761.89,24437.57,11381.96,39865.78,37431.05,27858.45
1133110.8997,-2756.17,24447.73,11487.87,39869.27,37472.87,27877.33
1133110.9017,-2758.6,24408.92,11379.1,39845.04,37429.1,27847.58
1133110.9037,-2754.69,24367.34,11187.84,39820.06,37351.18,27793.03
1133110.9057,-2737.19,24346.59,11047.51,39815.57,37300.5,27764.37
1133110.9077,-2719.55,24336.48,10882.19,39819.77,37252.14,27754.36
1133110.9097,-2737.71,24384.45,11030.01,39847.71,37310.56,27794.65
1133110.9117,-2752.4,24409.11,11189.7,39855.39,37362.2,27819.06
1133110.9137,-2762.99,24431.14,11332.8,39863.78,37409.93,27844.58
1133110.9157,-2783.16,24446.39,11467.6,39869.6,37460.71,27872.33
1133110.9177,-2795.17,24424.84,11438.23,39856.3,37450.37,27861.74
1133110.9197,-2794.22,24373.96,11248.45,39828.54,37373.31,27811.24
1133110.9217,-2793.98,24348.12,11108.07,39814.05,37319.33,27773.48
1133110.9237,-2778.58,24314.84,10892.34,39804.18,37247.9,27743.82
1133110.9257,-2782.68,24357.85,10952.71,39831.17,37280.04,27776.96
1133110.9277,-2780.29,24394.9,11130.48,39842.32,37340.79,27812.25
1133110.9297,-2753.54,24409.01,11272.72,39845.09,37383.89,27836.28
1133110.9317,-2764.46,24427.85,11411.67,39854.63,37435.97,27866.94
1133110.9337,-2768.76,24419.12,11461.93,39843.99,37452.13,27865.7
1133110.9357,-2763.37,24373.34,11297.85,39814.91,37383.23,27814.49
1133110.9377,-2760.17,24350.65,11158.04,39808.47,37329.87,27779.92
1133110.9397,-2747.39,24308.4,10950.71,39796.31,37257.82,27742.2
1133110.9417,-2723.88,24328.52,10890.06,39817.24,37253.57,27755.31
1133110.9437,-2720.79,24381.78,11065.87,39838.22,37317.19,27795.32
1133110.9457,-2759.41,24401.81,11224.6,39845.14,37370.3,27821.45
1133110.9477,-2778.24,24426.84,11367.7,39858.54,37421.42,27852.68
1133110.9497,-2778.91,24446.01,11498.6,39868.74,37470.39,27884.01
1133110.9517,-2776.81,24394.56,11371.52,39834.89,37414.56,27839.47
1133110.9537,-2766.7,24365.09,11209.54,39820.53,37351.76,27794.41
1133110.9557,-2777.91,24338.3,11040.02,39808.42,37294.3,27761.03
1133110.9577,-2777.24,24313.88,10867.02,39801.36,37238.41,27736.09
1133110.9597,-2745.34,24358.9,10997.73,39825.54,37285.38,27772.48
1133110.9617,-2742.24,24393.32,11172.49,39839.32,37345.8,27807.86
1133110.9637,-2749.63,24416.88,11303.38,39849.38,37395.39,27837.23
1133110.9657,-2771.71,24448.68,11476.18,39870.46,37465.0,27879.19
1133110.9677,-2781.58,24420.17,11435.56,39857.77,37451.37,27865.94
1133110.9697,-2789.4,24379.21,11256.55,39831.45,37377.27,27814.39
1133110.9717,-2794.5,24355.32,11107.59,39818.82,37318.28,27775.82
1133110.9737,-2773.95,24318.51,10902.55,39800.36,37246.8,27740.67
1133110.9757,-2736.76,24357.99,10952.71,39828.73,37278.23,27770.81
1133110.9777,-2723.31,24402.19,11147.07,39856.72,37351.09,27812.67
1133110.9797,-2744.63,24413.54,11270.67,39853.48,37387.76,27828.46
1133110.9817,-2764.37,24436.67,11419.82,39861.78,37440.3,27860.88
1133110.9837,-2780.15,24430.95,11475.9,39854.2,37458.33,27867.27
1133110.9857,-2786.02,24384.45,11315.39,39830.83,37395.53,27826.5
1133110.9877,-2759.65,24353.94,11158.42,39815.48,37336.64,27784.54
1133110.9897,-2722.88,24322.51,10965.21,39805.32,37270.84,27751.26
1133110.9917,-2717.83,24323.18,10890.53,39812.0,37250.71,27746.25
1133110.9937,-2727.37,24377.73,11077.26,39844.66,37326.15,27794.08
1133110.9957,-2747.92,24401.81,11231.57,39848.95,37374.17,27821.69
1133110.9977,-2766.94,24420.41,11356.98,39857.06,37416.46,27845.34
1133110.9997,-2786.26,24434.81,11494.54,39869.12,37473.21,27875.09
1133111.0017,-2799.37,24381.59,11366.7,39833.5,37414.46,27831.13
1133111.0037,-2778.72,24360.37,11213.92,39823.97,37358.15,27793.6
1133111.0057,-2750.73,24332.81,11041.07,39805.85,37292.39,27751.54
1133111.0077,-2742.77,24309.92,10881.85,39799.98,37242.23,27734.28
1133111.0097,-2771.81,24357.37,11000.21,39827.64,37291.34,27771.86
1133111.0117,-2810.24,24398.62,11178.07,39845.61,37359.19,27815.01
1133111.0137,-2808.62,24415.64,11305.24,39850.05,37402.21,27838.66
1133111.0157,-2782.39,24434.04,11473.23,39858.3,37461.91,27872.99
1133111.0177,-2775.29,24406.58,11429.22,39842.75,37442.93,27857.35
1133111.0197,-2751.45,24378.73,11270.57,39832.31,37385.8,27823.98
1133111.0217,-2732.61,24342.49,11099.1,39812.24,37321.14,27781.49
1133111.0237,-2719.88,24304.2,10901.83,39794.35,37252.24,27747.92
1133111.0257,-2721.6,24339.49,10925.77,39822.3,37273.6,27775.2
1133111.0277,-2737.67,24385.26,11123.71,39846.95,37344.7,27818.73
1133111.0297,-2734.95,24407.34,11256.27,39852.34,37388.52,27842.52
1133111.0317,-2760.12,24421.5,11412.1,39854.34,37439.54,27864.89
1133111.0337,-2775.72,24413.78,11455.11,39844.33,37453.08,27866.13
1133111.0357,-2772.67,24372.44,11310.05,39823.06,37397.48,27827.79
1133111.0377,-2784.68,24343.16,11145.26,39812.71,37333.06,27784.11
1133111.0397,-2773.86,24322.46,10982.71,39806.75,37279.8,27760.08
1133111.0417,-2744.87,24320.32,10888.63,39816.86,37257.82,27758.36
1133111.0437,-2750.3,24370.29,11074.69,39846.33,37326.58,27801.18
1133111.0457,-2771.9,24390.22,11214.45,39847.33,37366.54,27819.06
1133111.0477,-2783.11,24417.45,11366.18,39858.16,37422.52,27849.11
1133111.0497,-2800.04,24427.8,11475.33,39860.44,37464.1,27870.09
1133111.0517,-2788.07,24398.14,11379.53,39844.8,37430.2,27846.77
1133111.0536,-2770.95,24371.77,11204.29,39836.55,37369.35,27809.29
1133111.0556,-2783.01,24343.35,11058.76,39826.54,37312.94,27776.91
1133111.0576,-2747.11,24311.45,10868.74,39814.29,37250.71,27750.02
1133111.0596,-2760.98,24359.04,11004.88,39840.51,37303.45,27787.45
1133111.0616,-2767.42,24397.76,11178.35,39855.68,37362.82,27821.64
1133111.0636,-2764.13,24417.64,11315.25,39860.4,37404.02,27846.48
1133111.0656,-2790.79,24435.43,11452.49,39866.5,37454.23,27874.62
1133111.0676,-2782.39,24405.43,11427.93,39843.75,37439.26,27856.5
1133111.0696,-2757.17,24359.42,11243.73,39819.67,37368.35,27809.38
1133111.0716,-2765.94,24338.58,11104.63,39812.05,37315.33,27775.2
1133111.0736,-2773.76,24299.77,10887.29,39798.41,37243.08,27736.57
1133111.0756,-2775.34,24341.01,10933.54,39825.63,37270.5,27765.28
1133111.0776,-2756.6,24392.99,11118.51,39851.0,37340.69,27809.53
1133111.0796,-2764.94,24409.15,11254.69,39851.19,37380.94,27830.89
1133111.0816,-2785.4,24425.56,11394.79,39857.63,37430.82,27859.21
1133111.0836,-2805.28,24425.22,11460.69,39852.86,37454.47,27865.03
1133111.0856,-2794.65,24384.22,11304.62,39830.83,37392.57,27826.98
1133111.0876,-2785.16,24363.47,11162.19,39825.11,37341.65,27795.7
1133111.0896,-2780.72,24319.7,10955.72,39801.55,37265.31,27751.21
1133111.0916,-2764.18,24319.75,10871.55,39806.9,37242.08,27744.25
1133111.0936,-2758.74,24373.58,11051.99,39842.42,37314.47,27795.41
1133111.0956,-2764.27,24410.78,11219.22,39860.68,37377.03,27832.8
1133111.0976,-2803.28,24430.23,11349.11,39863.64,37419.51,27856.26
1133111.0996,-2832.56,24439.34,11475.85,39864.12,37463.86,27875.86
1133111.1016,-2797.22,24397.42,11364.56,39839.22,37417.85,27840.52
1133111.1036,-2757.22,24359.18,11202.0,39819.15,37350.47,27793.36
1133111.1056,-2749.11,24328.52,11033.3,39804.32,37290.48,27753.98
1133111.1076,-2749.35,24310.78,10858.68,39800.93,37236.6,27733.28
1133111.1096,-2754.97,24364.0,10986.28,39837.17,37294.34,27779.77
1133111.1116,-2774.81,24400.33,11166.76,39851.57,37353.85,27816.2
1133111.1136,-2808.43,24419.31,11300.14,39861.25,37400.39,27843.24
1133111.1156,-2819.11,24446.82,11460.26,39869.69,37460.33,27874.04
1133111.1176,-2803.9,24420.07,11427.83,39849.48,37442.97,27859.17
1133111.1196,-2772.71,24377.97,11251.07,39826.4,37375.88,27817.78
1133111.1216,-2750.92,24351.22,11096.43,39812.19,37318.42,27779.63
1133111.1236,-2745.1,24317.32,10889.48,39800.51,37249.95,27748.87
1133111.1256,-2757.12,24343.83,10916.14,39820.39,37268.02,27772.0
1133111.1276,-2775.53,24388.36,11103.35,39838.8,37332.44,27806.71
1133111.1296,-2791.55,24406.53,11239.53,39846.81,37378.17,27833.51
1133111.1316,-2807.9,24435.05,11393.74,39863.92,37437.06,27870.37
1133111.1336,-2832.94,24424.98,11455.01,39848.05,37447.74,27868.23
1133111.1356,-2837.52,24388.08,11301.47,39824.2,37387.57,27829.13
1133111.1376,-2821.26,24346.31,11138.63,39809.66,37328.2,27785.5
1133111.1396,-2777.62,24311.45,10949.95,39798.41,37263.87,27751.31
1133111.1416,-2764.99,24323.7,10869.7,39807.61,37243.75,27751.31
1133111.1436,-2749.25,24385.98,11051.32,39842.47,37314.94,27799.66
1133111.1456,-2756.07,24412.59,11206.72,39851.96,37367.63,27830.13
1133111.1476,-2780.82,24428.51,11330.42,39856.63,37410.03,27849.73
1133111.1496,-2797.65,24443.15,11476.42,39866.12,37466.72,27878.34
1133111.1516,-2790.07,24402.19,11368.42,39847.43,37425.71,27853.83
1133111.1536,-2761.98,24356.89,11194.85,39824.01,37354.04,27805.76
1133111.1556,-2752.54,24332.96,11031.53,39815.57,37295.06,27771.14
1133111.1576,-2741.24,24318.6,10871.36,39812.28,37245.33,27751.74
1133111.1596,-2759.17,24358.99,10982.85,39833.88,37283.66,27779.06
1133111.1616,-2800.08,24398.23,11163.38,39850.05,37344.7,27813.01
1133111.1636,-2817.58,24418.07,11289.5,39858.44,37388.57,27839.62
1133111.1656,-2835.37,24447.73,11462.4,39869.03,37453.08,27872.61
1133111.1676,-2814.25,24417.64,11425.16,39854.67,37438.44,27857.59
1133111.1696,-2771.0,24367.1,11253.55,39829.55,37368.83,27810.67
1133111.1716,-2741.96,24340.35,11090.9,39818.1,37306.07,27770.43
1133111.1736,-2738.0,24312.17,10905.31,39804.99,37246.14,27742.68
1133111.1756,-2743.2,24341.49,10913.66,39824.01,37257.1,27760.7
1133111.1776,-2760.79,24390.22,11117.79,39851.72,37330.68,27808.29
1133111.1796,-2780.06,24404.15,11247.06,39856.34,37372.55,27832.65
1133111.1816,-2814.1,24436.19,11413.15,39869.36,37434.06,27864.65
1133111.1836,-2832.22,24432.85,11463.79,39860.68,37449.36,27866.03
1133111.1856,-2801.32,24387.41,11320.59,39842.9,37399.58,27828.41
1133111.1876,-2773.19,24363.19,11156.61,39837.27,37343.32,27795.46
1133111.1896,-2751.68,24331.38,10988.14,39825.87,37284.76,27767.8
1133111.1916,-2757.79,24311.69,10866.69,39816.15,37241.32,27749.54
1133111.1936,-2777.39,24373.58,11059.43,39846.62,37314.47,27795.94
1133111.1956,-2778.2,24408.15,11215.97,39864.26,37370.92,27831.51
1133111.1976,-2792.84,24425.56,11353.16,39867.69,37416.7,27855.49
1133111.1996,-2802.9,24434.24,11469.65,39870.22,37459.43,27877.67
1133111.2016,-2800.8,24399.14,11382.53,39850.38,37422.33,27847.77
1133111.2036,-2773.0,24358.94,11200.38,39828.59,37347.37,27797.42
1133111.2056,-2758.31,24342.11,11065.01,39823.2,37300.88,27772.14
1133111.2076,-2742.91,24317.17,10871.22,39814.19,37244.09,27748.11
1133111.2096,-2744.68,24373.06,11003.92,39850.91,37300.83,27791.93
1133111.2116,-2739.72,24403.05,11173.2,39864.54,37356.62,27824.98
1133111.2136,-2754.83,24419.26,11310.39,39869.93,37402.59,27847.82
1133111.2156,-2774.76,24438.43,11452.01,39877.09,37453.7,27876.19
1133111.2176,-2792.69,24418.02,11445.91,39862.83,37450.89,27870.32
1133111.2196,-2790.59,24368.24,11258.94,39833.88,37374.74,27816.92
1133111.2216,-2791.79,24340.73,11114.65,39813.19,37309.56,27769.57
1133111.2236,-2762.65,24307.83,10900.69,39802.03,37241.08,27739.58
1133111.2256,-2756.45,24337.49,10932.11,39830.78,37268.07,27772.33
1133111.2276,-2765.13,24385.74,11116.89,39857.92,37339.64,27817.54
1133111.2296,-2773.52,24415.45,11268.86,39871.84,37397.2,27848.87
1133111.2316,-2785.25,24433.85,11410.76,39879.09,37447.17,27876.43
1133111.2336,-2809.1,24426.84,11483.43,39871.13,37468.58,27877.14
1133111.2356,-2805.85,24372.15,11321.36,39839.89,37398.3,27826.98
1133111.2376,-2796.22,24347.36,11173.63,39831.6,37341.5,27791.22
1133111.2396,-2781.3,24317.6,10980.85,39820.34,37276.7,27760.22
1133111.2416,-2778.15,24318.27,10881.95,39825.73,37249.52,27754.79
1133111.2436,-2789.64,24369.24,11052.09,39852.1,37313.61,27792.08
1133111.2456,-2792.64,24401.33,11221.27,39865.31,37369.59,27825.17
1133111.2476,-2786.49,24422.46,11353.54,39875.23,37418.51,27856.93
1133111.2496,-2785.02,24432.95,11491.01,39879.95,37470.44,27883.53
1133111.2516,-2770.33,24378.54,11372.28,39843.42,37415.7,27840.05
1133111.2536,-2790.64,24346.31,11213.21,39832.41,37356.76,27803.0
1133111.2556,-2816.49,24312.69,11046.55,39808.99,37287.53,27758.46
1133111.2576,-2759.79,24288.13,10867.6,39803.37,37231.88,27737.05
1133111.2596,-2737.33,24329.05,10975.65,39829.69,37279.71,27770.76
1133111.2616,-2764.75,24372.68,11162.47,39850.19,37347.37,27810.2
1133111.2636,-2783.92,24394.23,11285.45,39850.81,37386.23,27831.46
1133111.2656,-2813.05,24423.27,11449.53,39861.16,37444.88,27865.37
1133111.2676,-2825.12,24394.56,11434.7,39845.85,37435.97,27854.3
1133111.2696,-2802.8,24352.93,11265.8,39829.59,37376.84,27817.2
1133111.2716,-2776.72,24330.95,11119.89,39823.35,37321.86,27783.21
1133111.2736,-2760.98,24295.62,10913.33,39805.61,37249.43,27748.92
1133111.2756,-2762.6,24314.88,10920.48,39819.82,37257.91,27761.75
1133111.2776,-2770.66,24366.19,11115.46,39846.95,37329.63,27804.47
1133111.2796,-2791.93,24381.16,11246.59,39847.19,37365.63,27821.64
1133111.2816,-2800.27,24402.48,11387.87,39854.44,37418.8,27846.82
1133111.2836,-2796.98,24406.39,11472.04,39852.58,37450.13,27862.12
1133111.2856,-2772.67,24367.14,11327.65,39838.7,37398.68,27830.56
1133111.2876,-2775.19,24331.95,11169.82,39821.82,37337.4,27784.59
1133111.2896,-2788.59,24301.01,10982.99,39803.18,37266.78,27744.44
1133111.2916,-2781.25,24298.15,10882.47,39806.75,37238.65,27740.29
1133111.2936,-2773.95,24350.17,11051.85,39836.36,37304.07,27786.5
1133111.2956,-2768.85,24374.15,11208.82,39848.48,37357.95,27819.11
1133111.2976,-2771.62,24398.09,11339.09,39857.2,37403.02,27846.77
1133111.2996,-2801.04,24413.92,11487.91,39862.35,37456.28,27872.04
1133111.3016,-2825.79,24368.29,11382.3,39832.07,37409.93,27836.85
1133111.3036,-2818.2,24336.1,11220.98,39816.48,37347.94,27792.46
1133111.3056,-2779.05,24321.42,11062.34,39810.38,37292.29,27759.36
1133111.3076,-2761.46,24290.71,10884.48,39797.41,37232.93,27733.62
1133111.3096,-2755.59,24330.29,10981.99,39826.3,37275.51,27769.43
1133111.3116,-2751.64,24373.68,11168.1,39851.1,37346.75,27817.2
1133111.3136,-2773.62,24390.84,11294.65,39855.68,37386.37,27839.71
1133111.3156,-2789.69,24416.4,11467.27,39866.36,37448.79,27871.18
1133111.3176,-2797.65,24400.28,11454.87,39859.82,37445.22,27866.46
1133111.3196,-2808.76,24352.41,11281.25,39831.02,37375.03,27813.63
1133111.3216,-2772.38,24325.28,11123.61,39825.4,37321.67,27780.25
1133111.3236,-2757.45,24280.93,10926.77,39804.51,37251.38,27742.77
1133111.3256,-2755.45,24312.83,10922.86,39830.59,37260.97,27760.51
1133111.3276,-2768.66,24373.72,11133.24,39865.78,37346.18,27813.82
1133111.3296,-2775.76,24394.9,11267.57,39869.69,37389.28,27837.85
1133111.3316,-2779.1,24412.87,11422.25,39872.56,37439.45,27861.22
1133111.3336,-2805.57,24402.48,11479.05,39864.83,37458.0,27863.89
1133111.3356,-2798.8,24359.71,11340.29,39841.94,37404.06,27824.07
1133111.3376,-2778.01,24330.05,11172.2,39829.69,37343.22,27784.3
1133111.3396,-2767.75,24309.59,11017.51,39822.87,37293.77,27762.13
1133111.3416,-2776.34,24299.86,10890.44,39824.06,37255.34,27754.36
1133111.3436,-2772.9,24345.54,11066.58,39841.85,37313.04,27792.74
1133111.3456,-2749.73,24385.12,11227.23,39864.07,37373.83,27832.65
1133111.3476,-2758.31,24428.04,11386.83,39894.25,37444.26,27878.81
1133111.3496,-2801.23,24411.59,11486.87,39876.28,37467.01,27876.76
1133111.3516,-2801.99,24365.0,11394.03,39839.94,37420.94,27834.56
1133111.3536,-2782.54,24336.96,11222.89,39832.36,37362.53,27800.23
1133111.3556,-2764.03,24316.22,11094.29,39829.21,37315.18,27774.58
1133111.3576,-2761.41,24286.42,10889.1,39811.33,37244.09,27741.01
1133111.3596,-2766.94,24336.1,11005.83,39837.79,37292.91,27773.43
1133111.3616,-2756.93,24371.91,11179.59,39853.34,37349.9,27806.71
1133111.3636,-2759.27,24403.67,11326.27,39865.5,37403.54,27841.0
1133111.3656,-2770.85,24425.56,11467.46,39880.14,37456.99,27873.71
1133111.3676,-2792.31,24397.42,11462.26,39855.39,37445.65,27855.4
1133111.3696,-2798.27,24347.02,11280.82,39825.63,37372.88,27806.48
1133111.3716,-2780.96,24329.81,11148.74,39825.35,37328.2,27780.82
1133111.3736,-2775.19,24280.41,10922.72,39800.36,37244.47,27736.71
1133111.3756,-2767.56,24306.78,10930.78,39822.68,37258.49,27758.84
1133111.3776,-2780.1,24353.65,11113.12,39846.47,37324.86,27799.85
1133111.3796,-2779.34,24381.35,11267.9,39858.44,37378.98,27832.85
1133111.3816,-2783.82,24396.57,11404.99,39861.06,37425.67,27859.02
1133111.3836,-2785.64,24404.19,11498.17,39863.78,37461.57,27877.29
1133111.3856,-2779.34,24351.08,11336.47,39827.02,37392.05,27826.12
1133111.3876,-2771.33,24317.79,11183.17,39808.95,37328.06,27784.73
1133111.3896,-2758.12,24286.23,10995.53,39795.83,37262.4,27752.69
1133111.3916,-2740.67,24285.99,10886.86,39805.56,37234.31,27751.35
1133111.3936,-2755.4,24331.91,11046.6,39830.12,37295.49,27790.69
1133111.3956,-2781.49,24363.81,11215.35,39842.04,37352.85,27821.64
1133111.3976,-2817.68,24382.64,11340.14,39846.09,37395.62,27844.86
1133111.3996,-2840.38,24400.09,11488.87,39856.1,37451.22,27873.14
1133111.4016,-2824.35,24372.87,11407.9,39850.43,37429.0,27856.5
1133111.4036,-2829.7,24335.1,11238.43,39832.17,37362.87,27812.58
1133111.4056,-2800.99,24296.24,11069.35,39811.04,37297.06,27766.09
1133111.4076,-2751.4,24268.49,10882.81,39804.99,37238.65,27739.1
1133111.4096,-2761.41,24305.73,10977.51,39829.31,37279.09,27773.96
1133111.4116,-2796.7,24351.7,11165.05,39851.24,37344.84,27815.01
1133111.4136,-2801.04,24375.44,11298.71,39863.64,37394.39,27847.01
1133111.4156,-2799.03,24408.96,11466.65,39883.28,37462.43,27884.44
1133111.4176,-2794.22,24386.22,11466.12,39866.12,37457.71,27872.28
1133111.4196,-2778.86,24337.53,11292.7,39841.08,37391.95,27826.6
1133111.4216,-2748.35,24318.36,11146.93,39836.79,37343.65,27798.66
1133111.4236,-2739.0,24272.83,10931.83,39816.05,37267.83,27759.22
1133111.4256,-2737.57,24292.0,10921.62,39828.69,37268.64,27770.57
1133111.4276,-2744.77,24358.18,11136.1,39867.22,37354.52,27829.13
1133111.4296,-2758.26,24400.19,11291.6,39890.72,37416.75,27869.66
1133111.4316,-2819.16,24390.61,11395.5,39864.31,37429.15,27864.36
1133111.4336,-2821.78,24386.46,11481.95,39859.2,37456.14,27872.37
1133111.4356,-2811.96,24338.68,11337.09,39836.27,37396.39,27830.51
1133111.4376,-2804.23,24312.88,11181.12,39823.35,37338.21,27791.31
1133111.4396,-2802.75,24285.08,10998.92,39808.42,37277.37,27753.55
1133111.4416,-2789.69,24277.31,10883.05,39809.23,37242.27,27745.58
1133111.4436,-2780.53,24326.28,11045.27,39839.42,37306.03,27785.83
1133111.4456,-2761.22,24349.98,11203.91,39850.38,37360.96,27813.34
1133111.4476,-2765.66,24374.25,11333.42,39855.29,37401.39,27836.95
1133111.4496,-2793.03,24395.04,11488.92,39864.83,37457.28,27866.03
1133111.4516,-2799.08,24360.47,11401.61,39848.62,37424.52,27844.34
1133111.4536,-2808.48,24340.2,11249.88,39845.66,37372.88,27814.53
1133111.4556,-2821.73,24314.45,11086.37,39825.25,37303.74,27769.57
1133111.4576,-2804.52,24262.34,10890.2,39794.59,37229.26,27729.18
1133111.4596,-2773.24,24307.4,10971.45,39823.44,37270.22,27764.85
1133111.4616,-2756.07,24352.31,11158.66,39844.71,37339.02,27807.53
1133111.4636,-2759.79,24360.14,11275.53,39845.38,37378.7,27828.51
1133111.4656,-2787.4,24374.87,11441.33,39851.0,37434.15,27858.12
1133111.4676,-2816.3,24359.18,11437.04,39836.79,37427.38,27847.91
1133111.4696,-2814.25,24321.03,11276.63,39818.24,37368.54,27807.72
1133111.4716,-2796.32,24293.9,11116.74,39806.94,37310.65,27771.62
1133111.4736,-2786.68,24262.67,10936.07,39794.97,37250.81,27742.77
1133111.4756,-2781.25,24279.88,10904.6,39807.13,37245.8,27751.88
1133111.4776,-2772.38,24329.57,11102.92,39832.12,37317.8,27797.89
1133111.4796,-2790.12,24348.45,11233.86,39836.03,37360.67,27819.97
1133111.4816,-2818.01,24374.2,11394.17,39845.42,37413.84,27850.35
1133111.4836,-2810.43,24374.96,11474.42,39840.42,37439.4,27861.31
1133111.4856,-2799.27,24333.62,11344.82,39814.67,37386.42,27824.83
1133111.4876,-2804.14,24289.94,11158.75,39791.25,37310.13,27769.95
1133111.4896,-2799.03,24267.53,11003.16,39784.77,37260.92,27743.01
1133111.4916,-2786.83,24266.58,10871.89,39794.69,37230.54,27737.1
1133111.4936,-2765.42,24320.41,11043.93,39823.68,37298.02,27779.77
1133111.4956,-2777.96,24347.83,11198.81,39837.17,37351.33,27809.29
1133111.4976,-2809.24,24367.24,11337.52,39842.71,37393.53,27829.46
1133111.4996,-2807.0,24379.3,11466.65,39851.0,37442.59,27854.59
1133111.5016,-2788.78,24351.08,11404.8,39835.84,37421.71,27837.42
1133111.5036,-2799.56,24308.64,11216.78,39813.95,37345.75,27787.35
1133111.5056,-2809.38,24275.07,11071.44,39791.87,37283.23,27744.11
1133111.5076,-2788.5,24235.59,10861.92,39774.57,37213.62,27716.93
1133111.5096,-2789.45,24287.18,10969.83,39808.61,37265.21,27761.56
1133111.5116,-2790.31,24332.96,11152.46,39830.69,37334.54,27804.57
1133111.5136,-2798.56,24356.18,11288.93,39839.32,37381.18,27834.8
1133111.5156,-2820.25,24367.72,11416.91,39838.99,37419.37,27855.16
1133111.5176,-2824.69,24349.02,11440.56,39827.49,37424.85,27853.64
1133111.5196,-2816.63,24304.06,11270.1,39807.13,37361.86,27808.81
1133111.5216,-2839.09,24278.36,11125.52,39793.97,37305.31,27765.18
1133111.5236,-2794.36,24263.24,10933.73,39802.13,37256.1,27753.79
1133111.5256,-2770.57,24274.54,10915.47,39813.28,37253.77,27765.18
1133111.5276,-2776.24,24312.45,11083.08,39826.21,37310.41,27796.7
1133111.5296,-2798.99,24342.44,11239.43,39839.65,37364.15,27824.64
1133111.5316,-2808.52,24371.82,11384.92,39851.57,37417.65,27854.16
1133111.5336,-2815.01,24377.49,11486.25,39853.1,37456.95,27872.95
1133111.5356,-2790.07,24330.71,11341.05,39824.59,37397.06,27830.7
1133111.5376,-2781.68,24303.25,11189.18,39814.05,37336.07,27786.64
1133111.5396,-2771.57,24272.49,11006.02,39803.22,37276.46,27751.74
1133111.5416,-2761.79,24268.2,10882.67,39805.13,37242.42,27742.25
1133111.5436,-2766.8,24312.45,11035.68,39826.11,37293.58,27776.34
1133111.5456,-2794.08,24339.87,11206.68,39840.42,37350.85,27810.53
1133111.5476,-2800.51,24361.76,11334.99,39848.33,37397.2,27837.33
1133111.5496,-2820.92,24388.32,11490.97,39862.4,37459.28,27869.7
1133111.5516,-2829.17,24344.88,11399.79,39831.64,37417.85,27831.37
1133111.5536,-2783.35,24323.94,11244.01,39828.5,37366.35,27802.95
1133111.5556,-2770.0,24290.85,11084.37,39815.38,37305.65,27766.99
1133111.5576,-2775.91,24249.13,10883.33,39793.93,37234.45,27732.85
1133111.5596,-2800.13,24291.57,10969.31,39819.25,37271.07,27760.94
1133111.5616,-2817.01,24346.74,11169.43,39847.04,37344.08,27807.86
1133111.5636,-2794.12,24366.86,11296.04,39854.48,37388.38,27829.84
1133111.5655,-2781.44,24388.46,11453.39,39865.93,37444.41,27861.03
1133111.5675,-2767.99,24367.38,11458.88,39845.33,37440.78,27852.82
1133111.5695,-2765.18,24321.89,11288.31,39821.25,37374.41,27805.62
1133111.5715,-2780.25,24285.18,11128.09,39801.51,37306.36,27758.65
1133111.5735,-2775.62,24256.38,10933.02,39791.49,37242.13,27730.99
1133111.5755,-2790.45,24276.45,10913.95,39804.03,37240.18,27744.01
1133111.5775,-2792.55,24332.34,11107.73,39828.64,37310.89,27788.69
1133111.5795,-2769.71,24354.03,11249.21,39839.18,37362.96,27823.5
1133111.5815,-2779.77,24377.4,11388.88,39852.0,37418.08,27857.59
1133111.5835,-2807.09,24369.29,11476.23,39839.08,37441.07,27862.98
1133111.5855,-2814.39,24321.27,11335.9,39816.19,37388.71,27824.83
1133111.5875,-2820.06,24294.62,11181.02,39805.46,37331.59,27783.73
1133111.5895,-2821.11,24273.45,11007.69,39796.55,37270.65,27748.97
1133111.5915,-2772.57,24275.64,10891.49,39806.8,37243.42,27749.92
1133111.5935,-2769.42,24309.54,11037.3,39825.02,37294.11,27781.3
1133111.5955,-2767.09,24331.91,11195.85,39832.07,37346.13,27809.15
1133111.5975,-2779.77,24353.79,11325.89,39839.89,37390.81,27834.28
1133111.5995,-2792.64,24387.27,11489.92,39855.2,37455.52,27868.89
1133111.6015,-2806.33,24340.49,11401.03,39827.16,37417.51,27833.99
1133111.6035,-2799.23,24306.35,11239.01,39813.57,37357.1,27794.89
1133111.6055,-2788.78,24277.4,11077.79,39801.08,37295.01,27759.41
1133111.6075,-2780.01,24241.26,10892.92,39783.29,37230.54,27728.37
1133111.6095,-2798.65,24285.08,10972.12,39816.19,37272.41,27763.08
1133111.6115,-2820.44,24329.9,11155.56,39832.55,37335.11,27799.8
1133111.6135,-2804.57,24357.27,11286.59,39846.81,37384.42,27829.84
1133111.6155,-2813.24,24377.25,11457.25,39860.4,37449.03,27865.46
1133111.6175,-2817.82,24364.57,11465.26,39852.91,37452.42,27862.46
1133111.6195,-2831.51,24314.22,11293.98,39821.82,37381.22,27813.58
1133111.6215,-2837.52,24291.28,11135.58,39812.86,37322.1,27778.34
1133111.6235,-2782.25,24262.1,10961.01,39807.13,37268.36,27755.84
1133111.6255,-2734.09,24273.68,10917.38,39823.35,37265.69,27766.9
1133111.6275,-2724.7,24325.04,11110.78,39846.95,37336.83,27809.91
1133111.6295,-2748.78,24337.77,11239.72,39844.47,37371.59,27825.64
1133111.6315,-2780.87,24361.52,11393.69,39856.82,37426.67,27856.21
1133111.6335,-2818.25,24369.81,11481.81,39853.77,37458.57,27869.9
1133111.6355,-2845.72,24333.77,11361.31,39830.45,37411.03,27836.56
1133111.6375,-2825.69,24297.76,11186.6,39816.91,37345.22,27792.17
1133111.6395,-2767.9,24270.68,11036.83,39807.61,37290.77,27765.04
1133111.6415,-2737.71,24264.1,10891.63,39809.99,37250.9,27757.12
1133111.6435,-2747.97,24322.7,11062.38,39844.18,37319.0,27803.62
1133111.6455,-2785.87,24346.5,11211.25,39849.62,37365.97,27825.98
1133111.6475,-2804.85,24351.03,11331.99,39837.75,37395.91,27834.32
1133111.6495,-2822.26,24363.19,11464.5,39845.52,37444.79,27860.55
1133111.6515,-2844.91,24341.01,11415.05,39834.41,37428.67,27848.39
1133111.6535,-2820.35,24311.83,11235.05,39815.48,37358.24,27800.85
1133111.6555,-2777.67,24292.19,11101.87,39807.23,37308.79,27770.67
1133111.6575,-2748.54,24248.27,10887.43,39793.45,37238.75,27739.15
1133111.6595,-2762.41,24290.04,10974.22,39819.72,37279.37,27773.67
1133111.6615,-2784.78,24334.34,11152.7,39836.36,37339.45,27810.29
1133111.6635,-2798.99,24359.37,11299.47,39847.09,37390.9,27841.71
1133111.6655,-2822.4,24374.87,11437.37,39857.06,37442.97,27869.08
1133111.6675,-2831.89,24361.99,11462.31,39845.76,37445.69,27862.93
1133111.6695,-2798.32,24317.89,11290.69,39822.06,37379.17,27818.87
1133111.6715,-2781.01,24290.52,11149.12,39804.89,37317.85,27777.01
1133111.6735,-2759.5,24259.57,10946.18,39800.65,37255.91,27749.88
1133111.6755,-2775.48,24278.21,10921.29,39817.62,37259.15,27762.61
1133111.6775,-2803.76,24317.51,11093.71,39836.36,37317.42,27798.56
1133111.6795,-2811.62,24346.16,11252.5,39847.28,37370.16,27830.17
1133111.6815,-2832.32,24362.76,11382.72,39852.05,37416.08,27857.5
1133111.6835,-2822.3,24371.77,11490.63,39854.1,37455.61,27875.24
1133111.6855,-2802.56,24328.0,11354.78,39829.21,37403.97,27839.09
1133111.6875,-2793.17,24301.25,11198.24,39812.09,37340.84,27794.27
1133111.6895,-2771.43,24266.39,11016.32,39798.03,37276.7,27759.36
1133111.6915,-2733.95,24264.77,10893.11,39811.52,37249.24,27761.89
1133111.6935,-2760.74,24315.36,11041.55,39836.46,37301.35,27798.56
1133111.6955,-2792.45,24356.84,11218.22,39852.81,37359.48,27834.47
1133111.6975,-2800.27,24358.28,11324.55,39844.71,37386.85,27842.43
1133111.6995,-2792.55,24381.55,11481.24,39853.53,37443.31,27870.61
1133111.7015,-2803.18,24347.98,11408.76,39831.21,37416.27,27844.62
1133111.7035,-2796.7,24313.5,11240.44,39814.57,37352.61,27804.04
1133111.7055,-2776.67,24283.46,11086.61,39800.55,37291.29,27766.85
1133111.7075,-2773.76,24256.9,10891.82,39794.12,37231.97,27742.44
1133111.7095,-2793.88,24282.84,10960.53,39821.44,37265.35,27773.38
1133111.7115,-2814.53,24331.38,11151.6,39842.75,37330.16,27813.72
1133111.7135,-2848.96,24355.75,11275.91,39843.8,37367.97,27832.23
1133111.7155,-2824.02,24382.59,11436.75,39859.49,37431.91,27867.46
1133111.7175,-2802.66,24363.57,11457.16,39849.29,37440.69,27865.56
1133111.7195,-2799.32,24311.35,11285.21,39821.01,37373.31,27817.78
1133111.7215,-2778.53,24299.34,11144.69,39819.91,37324.39,27784.45
1133111.7235,-2752.4,24265.48,10940.74,39802.13,37251.52,27744.25
1133111.7255,-2735.47,24285.84,10909.13,39822.54,37255.34,27759.94
1133111.7275,-2762.79,24335.91,11106.11,39850.91,37325.29,27805.76
1133111.7295,-2809.43,24342.78,11232.62,39836.94,37354.62,27814.25
1133111.7315,-2816.2,24378.45,11373.71,39857.58,37412.6,27854.83
1133111.7335,-2819.35,24386.98,11488.25,39865.93,37461.0,27879.86
1133111.7355,-2809.24,24334.1,11347.34,39834.41,37401.87,27839.81
1133111.7375,-2800.32,24303.15,11187.51,39821.44,37340.6,27800.75
1133111.7395,-2787.07,24280.84,11013.65,39810.57,37278.7,27762.46
1133111.7415,-2784.82,24267.06,10873.32,39802.89,37231.97,27744.58
1133111.7435,-2792.84,24311.55,11013.37,39826.3,37284.28,27778.1
1133111.7455,-2791.45,24348.02,11183.22,39844.47,37347.89,27814.58
1133111.7475,-2815.06,24368.58,11312.68,39848.09,37388.0,27840.47
1133111.7495,-2852.87,24387.22,11473.94,39857.77,37446.31,27870.13
1133111.7515,-2844.86,24364.62,11411.38,39847.71,37426.52,27854.83
1133111.7535,-2815.68,24319.32,11230.66,39818.67,37353.14,27804.9
1133111.7555,-2795.08,24282.36,11064.05,39805.23,37290.77,27764.13
1133111.7575,-2790.5,24254.47,10888.77,39799.41,37238.65,27741.44
1133111.7595,-2783.35,24301.72,10955.62,39830.5,37272.98,27771.09
1133111.7615,-2758.46,24344.26,11142.83,39847.43,37336.59,27807.19
1133111.7635,-2767.66,24358.37,11265.66,39851.48,37375.36,27829.65
1133111.7655,-2796.55,24387.08,11438.23,39863.21,37435.63,27862.46
1133111.7675,-2828.03,24378.78,11464.88,39857.49,37442.07,27862.22
1133111.7695,-2833.89,24331.48,11304.48,39831.07,37376.07,27817.4
1133111.7715,-2832.03,24317.65,11150.08,39829.4,37323.24,27782.63
1133111.7735,-2803.42,24303.01,10981.94,39823.58,37268.36,27757.55
1133111.7755,-2773.09,24296.05,10906.6,39817.72,37243.61,27750.83
1133111.7775,-2760.03,24335.1,11095.0,39840.94,37309.65,27794.75
1133111.7795,-2760.55,24358.28,11232.66,39848.14,37354.19,27821.97
1133111.7815,-2778.39,24383.64,11382.06,39852.81,37405.88,27850.44
1133111.7835,-2818.73,24388.7,11472.04,39849.48,37435.01,27860.84
1133111.7855,-2810.34,24352.41,11357.74,39829.69,37391.67,27829.36
1133111.7875,-2773.19,24312.5,11182.64,39818.67,37327.68,27790.36
1133111.7895,-2764.65,24289.18,11035.97,39812.9,37279.09,27762.99
1133111.7915,-2766.04,24272.21,10875.75,39811.19,37233.4,27746.68
1133111.7935,-2778.24,24323.75,11033.3,39838.99,37295.39,27791.17
1133111.7955,-2778.05,24355.32,11192.28,39852.91,37353.71,27827.98
1133111.7975,-2787.21,24369.58,11326.46,39855.06,37395.67,27848.39
1133111.7995,-2827.69,24388.6,11464.02,39867.07,37447.5,27874.23
1133111.8015,-2829.93,24361.76,11419.63,39851.15,37430.43,27855.07
1133111.8035,-2807.19,24318.03,11240.29,39829.64,37358.81,27810.96
1133111.8055,-2797.65,24294.38,11104.06,39819.25,37308.03,27776.53
1133111.8075,-2773.57,24265.58,10893.25,39809.33,37240.65,27749.45
1133111.8095,-2764.75,24317.32,10977.08,39844.71,37286.91,27789.31
1133111.8115,-2791.5,24348.93,11141.49,39851.96,37336.59,27813.68
1133111.8135,-2795.98,24370.72,11287.12,39862.92,37389.43,27846.72
1133111.8155,-2807.43,24394.23,11436.75,39879.66,37453.85,27889.11
1133111.8175,-2833.32,24385.12,11480.81,39872.32,37469.58,27890.64
1133111.8195,-2833.46,24337.49,11303.09,39839.32,37392.76,27836.52
1133111.8215,-2827.93,24310.97,11156.46,39826.21,37333.45,27796.18
1133111.8235,-2782.92,24269.73,10948.9,39812.52,37263.45,27764.32
1133111.8255,-2751.78,24277.17,10902.93,39819.63,37251.38,27769.28
1133111.8275,-2767.04,24326.04,11078.26,39843.85,37315.04,27806.43
1133111.8295,-2815.53,24350.03,11233.09,39851.19,37366.63,27831.13
1133111.8315,-2823.78,24378.11,11371.33,39860.3,37415.56,27861.07
1133111.8335,-2816.53,24390.61,11491.92,39867.6,37459.09,27881.43
1133111.8355,-2816.53,24333.05,11350.54,39830.02,37395.58,27832.46
1133111.8375,-2820.83,24304.06,11200.57,39819.34,37337.12,27796.56
1133111.8395,-2804.47,24280.31,11033.01,39816.72,37284.47,27768.76
1133111.8415,-2768.99,24258.85,10878.95,39808.33,37236.93,27749.45
1133111.8435,-2776.48,24304.68,11014.27,39834.46,37290.53,27787.35
1133111.8455,-2811.86,24352.31,11206.06,39865.16,37365.39,27838.95
1133111.8475,-2817.63,24380.02,11334.13,39873.89,37411.27,27868.42
1133111.8495,-2824.45,24384.22,11471.46,39862.83,37443.79,27873.85
1133111.8515,-2788.73,24349.5,11410.14,39844.71,37420.09,27854.88
1133111.8535,-2779.29,24312.17,11248.11,39830.16,37362.01,27818.44
1133111.8555,-2771.85,24294.9,11101.72,39825.49,37311.13,27785.11
1133111.8575,-2765.75,24266.48,10907.56,39817.48,37252.43,27761.08
1133111.8595,-2777.86,24303.34,10965.49,39840.89,37286.19,27790.03
1133111.8615,-2789.12,24355.94,11162.71,39865.4,37356.48,27834.7
1133111.8635,-2796.6,24357.7,11277.58,39858.87,37383.51,27845.48
1133111.8655,-2799.61,24377.4,11436.13,39873.7,37444.83,27879.43
1133111.8675,-2806.52,24368.58,11473.47,39863.31,37455.94,27879.91
1133111.8695,-2805.71,24330.09,11312.44,39839.22,37393.34,27839.23
1133111.8715,-2806.71,24302.34,11160.71,39829.07,37335.21,27797.42
1133111.8735,-2773.0,24288.13,10986.09,39837.13,37290.01,27785.11
1133111.8755,-2783.82,24286.51,10916.52,39829.93,37262.92,27778.3
1133111.8775,-2819.16,24329.14,11095.19,39844.9,37321.52,27809.53
1133111.8795,-2805.85,24348.02,11234.57,39849.57,37367.49,27836.52
1133111.8815,-2785.83,24363.9,11364.37,39858.25,37415.99,27865.7
1133111.8835,-2799.51,24372.91,11484.2,39860.92,37458.42,27887.49
1133111.8855,-2822.02,24332.0,11356.36,39830.98,37403.25,27848.53
1133111.8875,-2819.4,24301.82,11195.8,39818.43,37342.6,27807.91
1133111.8895,-2790.74,24269.63,11025.81,39809.47,37284.9,27774.48
1133111.8915,-2779.91,24253.66,10883.67,39811.14,37246.9,27765.42
1133111.8935,-2786.02,24310.26,11028.77,39844.99,37307.7,27807.33
1133111.8955,-2794.93,24335.39,11190.32,39846.04,37355.62,27831.8
1133111.8975,-2818.82,24354.17,11321.5,39854.1,37398.3,27856.21
1133111.8995,-2825.55,24372.29,11478.04,39862.97,37455.66,27885.77
1133111.9015,-2829.17,24339.73,11418.06,39845.04,37434.87,27870.85
1133111.9035,-2825.17,24300.05,11247.78,39821.01,37368.35,27822.4
1133111.9055,-2802.66,24269.92,11090.04,39810.61,37311.37,27784.06
1133111.9075,-2783.58,24244.22,10907.27,39804.65,37258.58,27763.04
1133111.9095,-2783.54,24280.98,10948.95,39825.73,37281.42,27786.21
1133111.9115,-2783.35,24327.14,11143.64,39846.85,37346.27,27826.12
1133111.9135,-2782.63,24348.21,11271.53,39852.67,37389.28,27847.72
1133111.9155,-2801.94,24369.05,11433.08,39861.49,37446.55,27875.62
1133111.9175,-2821.87,24358.7,11462.02,39852.34,37454.56,27871.52
1133111.9195,-2840.81,24313.98,11307.48,39830.02,37394.91,27835.04
1133111.9215,-2846.53,24275.35,11136.44,39808.09,37322.57,27792.7
1133111.9235,-2794.31,24244.03,10966.83,39801.94,37266.54,27767.09
1133111.9255,-2803.14,24254.99,10899.12,39813.43,37252.05,27769.71
1133111.9275,-2830.93,24306.92,11087.56,39832.07,37319.71,27804.52
1133111.9295,-2815.77,24334.58,11230.04,39842.99,37369.97,27833.89
1133111.9315,-2811.29,24353.79,11376.1,39850.14,37419.47,27864.6
1133111.9335,-2799.13,24355.27,11472.23,39847.47,37452.89,27877.86
1133111.9355,-2809.33,24305.35,11352.25,39817.24,37402.92,27840.9
1133111.9375,-2800.94,24279.03,11182.55,39808.9,37342.36,27803.42
1133111.9395,-2785.97,24260.91,11046.94,39807.71,37300.45,27782.11
1133111.9415,-2785.92,24235.16,10867.64,39797.17,37239.79,27755.31
1133111.9435,-2782.92,24298.38,11022.9,39828.11,37298.87,27797.8
1133111.9455,-2795.65,24331.29,11184.84,39841.18,37353.09,27829.41
1133111.9475,-2808.29,24343.45,11315.49,39841.13,37391.43,27848.29
1133111.9495,-2811.43,24363.04,11451.44,39849.33,37442.59,27876.52
1133111.9515,-2792.79,24349.55,11430.03,39841.42,37436.87,27869.94
1133111.9535,-2789.45,24299.82,11247.54,39814.33,37362.77,27820.11
1133111.9555,-2810.53,24270.97,11105.11,39799.65,37304.5,27782.01
1133111.9575,-2815.53,24243.98,10898.45,39790.21,37234.93,27752.97
1133111.9595,-2812.1,24271.3,10949.09,39799.6,37251.38,27764.85
1133111.9615,-2798.13,24308.97,11123.09,39819.2,37313.28,27801.04
1133111.9635,-2818.01,24335.53,11270.81,39830.5,37366.97,27835.61
1133111.9655,-2829.12,24365.33,11422.44,39847.0,37426.29,27871.04
1133111.9675,-2817.82,24350.98,11469.46,39839.08,37443.59,27869.28
1133111.9695,-2807.76,24306.01,11299.42,39811.57,37377.27,27821.83
1133111.9715,-2810.24,24285.13,11161.38,39803.18,37324.81,27786.16
1133111.9735,-2784.54,24249.94,10962.25,39793.4,37260.06,27755.45
1133111.9755,-2767.42,24249.08,10895.16,39799.12,37241.51,27756.5
1133111.9775,-2765.27,24303.49,11073.16,39830.12,37311.32,27802.18
1133111.9795,-2784.16,24332.96,11235.86,39841.08,37367.01,27832.46
1133111.9815,-2809.91,24355.13,11368.37,39848.52,37413.98,27858.93
1133111.9835,-2840.52,24367.0,11494.78,39855.87,37465.86,27886.54
1133111.9855,-2836.42,24320.37,11368.47,39830.4,37414.36,27851.35
1133111.9875,-2817.96,24275.64,11197.28,39800.51,37340.6,27797.85
1133111.9895,-2809.38,24249.84,11026.19,39788.92,37280.23,27766.85
1133111.9915,-2783.63,24232.96,10873.51,39788.44,37233.5,27754.6
1133111.9935,-2783.11,24270.2,10997.96,39809.61,37280.75,27785.02
1133111.9955,-2805.09,24323.42,11192.99,39838.27,37355.05,27829.32
1133111.9975,-2848.34,24340.54,11316.92,39846.62,37398.63,27853.4
1133111.9995,-2857.78,24359.18,11471.61,39852.24,37456.42,27882.44
1133112.0015,-2842.28,24323.18,11416.1,39831.07,37434.15,27863.55
1133112.0035,-2812.2,24293.23,11252.45,39816.34,37372.45,27825.03
1133112.0055,-2776.91,24264.58,11097.86,39804.13,37314.37,27785.11
1133112.0075,-2740.86,24240.54,10904.22,39796.79,37251.57,27758.89
1133112.0095,-2739.62,24268.53,10946.85,39817.1,37271.36,27782.35
1133112.0115,-2780.01,24306.01,11131.19,39830.74,37331.63,27815.77
1133112.0135,-2814.77,24324.13,11252.69,39827.73,37370.73,27832.08
1133112.0155,-2825.4,24348.31,11409.14,39837.65,37425.86,27860.6
1133112.0175,-2817.68,24347.93,11464.55,39837.84,37450.08,27868.7
1133112.0195,-2814.39,24313.6,11314.39,39817.34,37391.09,27831.65
1133112.0215,-2829.5,24274.07,11149.65,39791.78,37318.28,27781.68
1133112.0235,-2816.73,24242.55,10966.02,39782.0,37254.48,27749.97
1133112.0255,-2791.55,24249.08,10896.35,39791.16,37237.84,27751.5
1133112.0275,-2794.55,24293.04,11071.97,39811.47,37296.25,27786.16
1133112.0295,-2782.68,24326.47,11224.7,39830.78,37353.85,27820.97
1133112.0315,-2780.39,24345.35,11357.12,39836.84,37399.2,27846.67
1133112.0335,-2783.3,24351.22,11480.81,39836.7,37445.5,27870.04
1133112.0355,-2790.55,24312.17,11365.84,39818.2,37404.21,27842.19
1133112.0375,-2790.55,24289.42,11211.35,39811.09,37346.99,27804.28
1133112.0395,-2772.86,24272.92,11056.23,39809.18,37297.4,27780.73
1133112.0415,-2802.47,24241.64,10886.67,39788.16,37233.26,27746.39
1133112.0435,-2795.65,24287.61,11010.27,39817.53,37285.48,27784.64
1133112.0455,-2786.21,24316.36,11180.35,39830.31,37344.03,27819.68
1133112.0475,-2789.21,24342.59,11315.44,39843.13,37391.57,27848.29
1133112.0495,-2812.24,24369.53,11481.67,39855.77,37453.18,27882.39
1133112.0515,-2809.57,24336.01,11430.5,39836.08,37430.77,27862.27
1133112.0535,-2810.43,24287.37,11255.55,39807.23,37359.62,27809.77
1133112.0555,-2828.17,24259.0,11094.67,39791.3,37294.11,27762.51
1133112.0575,-2809.62,24231.96,10914.61,39784.39,37233.83,27737.95
1133112.0595,-2780.82,24266.25,10943.65,39805.61,37254.58,27764.18
1133112.0615,-2793.84,24312.79,11136.1,39828.69,37325.96,27806.24
1133112.0635,-2834.13,24325.42,11261.42,39830.83,37364.3,27822.07
1133112.0655,-2832.37,24351.79,11424.11,39835.6,37417.8,27851.58
1133112.0675,-2808.86,24335.91,11456.78,39819.29,37420.8,27848.68
1133112.0695,-2793.79,24295.38,11305.48,39804.89,37370.54,27816.78
1133112.0715,-2789.12,24264.48,11139.06,39790.35,37307.93,27773.34
1133112.0735,-2787.4,24232.44,10967.78,39778.86,37251.81,27742.96
1133112.0755,-2757.31,24239.07,10885.19,39794.4,37236.03,27749.64
1133112.0774,-2780.34,24298.96,11082.94,39825.02,37311.42,27796.94
1133112.0794,-2810.29,24329.24,11228.23,39830.88,37356.52,27820.07
1133112.0814,-2842.76,24343.16,11363.65,39827.88,37397.2,27840.0
1133112.0834,-2817.11,24358.61,11478.76,39837.99,37444.98,27864.51
1133112.0854,-2806.38,24316.89,11379.15,39816.29,37405.4,27833.56
1133112.0874,-2791.41,24278.21,11197.04,39799.08,37335.3,27785.73
1133112.0894,-2773.95,24257.81,11061.48,39793.31,37285.09,27758.89
1133112.0914,-2747.82,24225.52,10871.79,39775.52,37218.53,27728.42
1133112.0934,-2767.94,24290.9,11024.52,39817.15,37285.81,27779.15
1133112.0954,-2797.08,24332.34,11196.9,39834.27,37344.13,27814.01
1133112.0974,-2791.5,24346.97,11332.66,39835.84,37387.33,27833.99
1133112.0994,-2808.09,24363.33,11465.36,39842.42,37433.77,27857.97
1133112.1014,-2798.37,24338.01,11446.1,39826.49,37424.14,27846.67
1133112.1034,-2795.32,24291.8,11261.32,39798.07,37347.37,27797.08
1133112.1054,-2811.0,24280.46,11132.15,39795.69,37301.12,27769.95
1133112.1074,-2776.0,24237.68,10909.75,39774.47,37225.01,27733.85
1133112.1094,-2749.54,24255.42,10942.37,39790.92,37241.94,27754.79
1133112.1114,-2754.55,24290.37,11110.16,39805.75,37298.02,27788.55
1133112.1134,-2776.67,24316.93,11261.75,39816.43,37349.9,27815.97
1133112.1154,-2803.37,24339.63,11408.71,39825.78,37404.02,27845.29
1133112.1174,-2843.14,24338.68,11472.85,39822.25,37427.95,27850.87
1133112.1194,-2823.45,24299.34,11319.11,39804.89,37372.5,27814.3
1133112.1214,-2816.2,24288.7,11184.6,39804.84,37327.01,27785.35
1133112.1234,-2795.27,24240.12,10967.3,39772.32,37241.42,27730.47
1133112.1254,-2752.11,24241.07,10895.54,39789.59,37230.31,27739.62
1133112.1274,-2764.32,24281.79,11061.96,39809.66,37291.34,27779.63
1133112.1294,-2780.53,24316.98,11225.61,39822.54,37347.85,27810.53
1133112.1314,-2790.59,24343.3,11358.41,39831.93,37395.29,27838.19
1133112.1334,-2811.72,24364.67,11500.79,39842.42,37447.7,27866.08
1133112.1354,-2827.98,24314.84,11379.2,39815.57,37397.87,27827.17
1133112.1374,-2826.31,24284.37,11223.46,39805.7,37339.02,27791.31
1133112.1394,-2801.32,24256.04,11054.95,39792.54,37277.23,27756.12
1133112.1414,-2771.81,24247.89,10899.02,39796.74,37236.65,27747.83
1133112.1434,-2777.24,24292.61,11018.66,39818.01,37283.66,27781.54
1133112.1454,-2776.96,24319.7,11193.32,39826.54,37338.55,27811.05
1133112.1474,-2800.32,24333.43,11306.67,39828.78,37375.12,27828.41
1133112.1494,-2827.79,24365.86,11475.9,39847.33,37440.97,27863.65
1133112.1514,-2835.8,24342.44,11438.37,39827.69,37422.8,27845.77
1133112.1534,-2799.08,24290.71,11263.61,39794.5,37348.18,27793.7
1133112.1554,-2760.55,24253.9,11109.07,39780.57,37290.39,27754.26
1133112.1574,-2745.77,24231.63,10921.15,39779.0,37234.93,27732.76
1133112.1594,-2749.82,24260.67,10945.04,39801.55,37251.14,27754.41
1133112.1614,-2767.9,24303.82,11138.49,39826.06,37320.52,27797.61
1133112.1634,-2772.62,24330.09,11271.24,39835.03,37366.78,27824.69
1133112.1654,-2775.72,24357.23,11422.68,39845.66,37421.61,27856.59
1133112.1674,-2785.97,24350.5,11486.58,39842.32,37445.84,27867.27
1133112.1694,-2790.07,24309.83,11334.8,39820.82,37389.95,27833.37
1133112.1714,-2788.21,24275.5,11175.35,39803.46,37324.96,27789.55
1133112.1734,-2773.33,24241.5,10989.71,39791.25,37263.59,27758.89
1133112.1754,-2764.27,24245.69,10906.51,39801.46,37244.99,27761.13
1133112.1774,-2780.96,24287.18,11071.83,39814.52,37298.87,27795.08
1133112.1794,-2799.18,24315.41,11223.03,39826.45,37351.42,27822.64
1133112.1814,-2821.45,24342.97,11368.99,39840.46,37404.16,27855.59
1133112.1834,-2846.05,24342.68,11489.92,39827.64,37437.06,27863.98
1133112.1854,-2838.47,24305.82,11384.92,39811.66,37399.82,27837.23
1133112.1874,-2813.01,24273.11,11218.36,39796.74,37338.64,27800.13
1133112.1894,-2785.4,24246.46,11051.56,39783.58,37275.46,27762.32
1133112.1914,-2772.24,24223.33,10885.0,39776.04,37219.58,27740.0
1133112.1934,-2768.18,24277.5,11010.08,39812.05,37277.32,27781.87
1133112.1954,-2788.69,24311.35,11185.46,39829.31,37340.12,27817.2
1133112.1974,-2791.74,24328.76,11312.68,39831.93,37380.03,27834.61
1133112.1994,-2819.63,24356.42,11479.9,39835.36,37437.35,27861.55
1133112.2014,-2827.22,24322.66,11434.7,39808.66,37414.22,27839.19
1133112.2034,-2813.63,24281.89,11270.95,39792.21,37353.76,27797.27
1133112.2054,-2806.0,24261.05,11124.33,39791.78,37302.45,27767.57
1133112.2074,-2776.53,24236.01,10938.84,39783.96,37239.65,27739.86
1133112.2094,-2747.77,24259.76,10948.8,39800.51,37248.62,27755.69
1133112.2114,-2762.65,24300.53,11139.11,39818.48,37316.28,27791.36
1133112.2134,-2770.57,24319.37,11265.47,39822.49,37357.14,27815.01
1133112.2154,-2780.2,24349.55,11430.31,39838.41,37420.85,27855.16
1133112.2174,-2805.76,24331.76,11472.37,39819.53,37425.9,27848.06
1133112.2194,-2822.49,24288.04,11324.6,39792.26,37365.49,27804.52
1133112.2214,-2836.99,24261.67,11159.95,39779.86,37301.93,27765.23
1133112.2234,-2804.66,24239.54,10998.3,39772.09,37249.14,27739.58
1133112.2254,-2754.59,24240.59,10896.25,39783.72,37225.97,27742.1
1133112.2274,-2765.27,24291.61,11081.51,39816.1,37294.2,27790.03
1133112.2294,-2782.44,24317.51,11227.08,39820.15,37337.55,27812.1
1133112.2314,-2817.11,24343.68,11372.23,39827.88,37388.09,27838.14
1133112.2334,-2846.15,24346.21,11479.33,39822.54,37424.0,27852.73
1133112.2354,-2818.3,24312.4,11387.73,39799.17,37386.71,27823.88
1133112.2374,-2771.81,24279.74,11214.78,39790.54,37325.1,27785.69
1133112.2394,-2778.1,24252.85,11077.6,39783.34,37272.7,27753.5
1133112.2414,-2758.74,24232.15,10893.2,39781.24,37217.05,27731.23
1133112.2434,-2784.01,24288.94,11030.15,39812.62,37272.98,27771.05
1133112.2454,-2809.24,24325.28,11197.19,39824.2,37327.87,27800.85
1133112.2474,-2778.77,24343.83,11332.23,39829.64,37375.12,27829.13
1133112.2494,-2773.86,24346.74,11455.2,39829.31,37417.56,27850.39
1133112.2514,-2776.77,24328.62,11448.67,39817.48,37414.13,27841.52
1133112.2534,-2779.39,24286.89,11271.95,39792.73,37342.22,27792.03
1133112.2554,-2769.47,24265.34,11138.77,39785.2,37291.25,27760.6
1133112.2574,-2772.86,24224.57,10923.77,39772.42,37220.82,27729.47
1133112.2594,-2783.06,24252.99,10951.23,39797.17,37243.08,27754.5
1133112.2614,-2773.33,24304.58,11131.81,39823.58,37310.94,27796.89
1133112.2634,-2797.27,24328.62,11280.82,39829.5,37359.58,27819.83
1133112.2654,-2803.33,24346.88,11423.06,39835.98,37407.5,27848.68
1133112.2674,-2806.47,24338.53,11492.73,39826.16,37430.24,27853.87
1133112.2694,-2812.24,24293.23,11331.51,39798.65,37368.4,27809.53
1133112.2714,-2794.55,24272.02,11187.75,39789.97,37313.89,27775.72
1133112.2734,-2786.68,24232.82,10985.9,39770.75,37240.61,27734.57
1133112.2754,-2787.21,24226.57,10887.77,39768.08,37206.89,27719.41
1133112.2774,-2786.59,24283.13,11064.1,39801.89,37278.32,27764.85
1133112.2794,-2786.45,24321.51,11239.29,39821.68,37340.84,27805.43
1133112.2814,-2806.04,24329.81,11355.69,39819.05,37377.5,27822.97
1133112.2834,-2833.89,24336.15,11489.92,39815.48,37421.04,27840.81
1133112.2854,-2822.73,24289.37,11377.53,39779.76,37366.11,27801.61
1133112.2874,-2786.11,24265.86,11225.03,39773.76,37312.51,27768.14
1133112.2894,-2790.69,24246.12,11066.3,39770.94,37259.63,27739.53
1133112.2914,-2800.8,24235.39,10900.31,39773.56,37214.38,27728.04
1133112.2934,-2809.62,24266.34,11005.16,39789.87,37252.91,27752.5
1133112.2954,-2787.97,24304.06,11187.36,39809.71,37319.57,27791.46
1133112.2974,-2779.82,24321.37,11305.38,39817.05,37363.53,27818.64
1133112.2994,-2793.12,24340.25,11462.4,39822.92,37416.22,27844.0
1133112.3014,-2797.56,24317.22,11437.51,39803.51,37402.68,27825.17
1133112.3034,-2794.36,24278.83,11273.48,39784.1,37340.03,27785.35
1133112.3054,-2777.96,24259.05,11127.14,39779.67,37289.77,27754.26
1133112.3074,-2773.0,24231.77,10935.98,39772.28,37230.93,27726.46
1133112.3094,-2767.09,24247.98,10937.98,39787.3,37235.65,27741.01
1133112.3114,-2774.91,24292.81,11136.15,39817.48,37307.74,27785.69
1133112.3134,-2805.52,24316.31,11266.76,39821.92,37351.9,27808.96
1133112.3154,-2822.45,24341.97,11411.1,39828.5,37407.31,27840.33
1133112.3174,-2836.18,24329.86,11478.09,39817.77,37426.91,27844.48
1133112.3194,-2822.49,24283.27,11332.32,39793.78,37367.4,27805.76
1133112.3214,-2801.13,24253.71,11175.92,39784.1,37310.03,27769.85
1133112.3234,-2800.51,24223.24,10993.72,39770.8,37246.76,27737.29
1133112.3254,-2783.35,24230.53,10898.31,39779.95,37224.68,27736.38
1133112.3274,-2774.91,24284.94,11072.11,39810.47,37292.91,27782.25
1133112.3294,-2776.96,24311.12,11228.66,39825.63,37348.94,27818.35
1133112.3314,-2795.55,24310.11,11344.48,39814.38,37377.08,27831.75
1133112.3334,-2814.53,24325.09,11486.44,39820.72,37429.81,27858.64
1133112.3354,-2808.29,24301.67,11399.18,39812.57,37401.63,27839.0
1133112.3374,-2820.25,24274.21,11236.81,39799.17,37339.69,27799.99
1133112.3394,-2806.09,24252.47,11080.79,39790.83,37283.9,27767.28
1133112.3414,-2779.34,24220.56,10904.69,39780.81,37227.11,27741.58
1133112.3434,-2771.9,24262.62,11003.5,39806.85,37271.07,27777.01
1133112.3454,-2792.45,24299.48,11177.16,39817.15,37327.72,27808.34
1133112.3474,-2812.48,24318.51,11305.72,39817.39,37365.01,27827.36
1133112.3494,-2831.65,24343.87,11478.57,39832.5,37429.48,27864.84
1133112.3514,-2826.31,24331.76,11462.64,39826.87,37428.38,27857.5
1133112.3534,-2828.36,24288.09,11292.51,39807.42,37362.72,27809.72
1133112.3554,-2815.68,24257.85,11135.96,39794.4,37298.16,27770.14
1133112.3574,-2785.02,24225.38,10953.57,39787.01,37242.23,27747.3
1133112.3594,-2760.46,24248.17,10946.85,39805.89,37249.0,27762.7
1133112.3614,-2768.9,24297.34,11141.21,39826.78,37319.33,27801.99
1133112.3634,-2792.5,24314.36,11267.0,39827.64,37355.24,27819.54
1133112.3654,-2800.46,24342.35,11427.07,39842.8,37418.51,27858.74
1133112.3674,-2823.21,24332.48,11484.91,39834.89,37435.73,27863.79
1133112.3694,-2841.66,24282.12,11337.52,39802.22,37372.64,27817.35
1133112.3714,-2820.3,24258.57,11175.97,39798.31,37318.09,27780.68
1133112.3734,-2795.98,24229.39,11015.8,39787.82,37264.64,27751.4
1133112.3754,-2769.95,24223.95,10897.83,39788.97,37228.78,27747.21
1133112.3774,-2766.47,24287.08,11087.23,39825.16,37305.12,27797.13
1133112.3794,-2802.94,24303.87,11225.22,39826.11,37342.98,27814.77
1133112.3814,-2834.8,24324.94,11370.71,39839.51,37397.34,27847.1
1133112.3834,-2851.11,24338.77,11488.34,39842.42,37442.64,27869.66
1133112.3854,-2835.85,24310.26,11414.1,39825.49,37414.13,27846.01
1133112.3874,-2813.58,24268.06,11232.66,39803.56,37340.45,27798.56
1133112.3894,-2777.53,24250.46,11095.24,39800.7,37297.21,27767.9
1133112.3914,-2756.88,24222.33,10896.64,39792.73,37236.6,27743.1
1133112.3934,-2769.9,24270.59,11017.18,39823.11,37286.33,27783.02
1133112.3954,-2782.01,24307.73,11190.23,39839.18,37343.32,27815.87
1133112.3974,-2800.32,24329.09,11326.22,39844.23,37386.71,27839.71
1133112.3994,-2829.12,24346.12,11458.64,39848.28,37431.67,27863.46
1133112.4014,-2869.65,24332.53,11464.07,39832.07,37429.0,27855.45
1133112.4034,-2853.73,24289.56,11289.17,39806.61,37356.91,27811.24
1133112.4054,-2813.29,24264.53,11153.65,39800.74,37307.31,27781.68
1133112.4074,-2805.19,24221.42,10937.5,39783.77,37234.6,27744.96
1133112.4094,-2813.72,24245.41,10942.13,39801.94,37243.56,27761.75
1133112.4114,-2800.13,24295.38,11123.61,39829.78,37311.89,27804.33
1133112.4134,-2824.31,24325.52,11276.1,39836.84,37362.15,27829.79
1133112.4154,-2831.94,24335.43,11403.23,39832.98,37399.96,27845.29
1133112.4174,-2828.12,24340.54,11493.16,39837.08,37436.01,27862.74
1133112.4194,-2795.79,24305.54,11347.96,39819.29,37386.8,27833.08
1133112.4214,-2779.25,24273.64,11190.37,39798.79,37320.38,27790.93
1133112.4234,-2797.65,24230.63,10988.09,39773.52,37240.27,27743.06
1133112.4254,-2795.41,24236.59,10893.82,39787.01,37220.72,27748.92
1133112.4274,-2786.68,24284.22,11057.19,39816.43,37281.71,27788.79
1133112.4294,-2805.19,24317.89,11227.9,39827.07,37339.12,27816.01
1133112.4314,-2817.25,24338.25,11346.29,39829.97,37379.27,27838.38
1133112.4334,-2842.0,24351.17,11491.78,39837.65,37436.63,27864.13
1133112.4354,-2829.27,24314.55,11395.17,39817.77,37400.87,27837.66
1133112.4374,-2795.32,24278.5,11234.09,39800.65,37335.45,27794.79
1133112.4394,-2777.15,24248.17,11072.16,39794.02,37277.75,27758.27
1133112.4414,-2774.05,24228.0,10896.06,39788.44,37225.87,27739.34
1133112.4434,-2788.21,24268.82,10990.05,39811.9,37266.07,27771.62
1133112.4454,-2806.28,24311.74,11179.83,39832.41,37332.49,27809.96
1133112.4474,-2814.96,24341.01,11313.2,39850.67,37385.56,27843.19
1133112.4494,-2845.67,24352.6,11461.78,39848.95,37430.2,27858.69
1133112.4514,-2864.22,24325.66,11451.77,39832.02,37424.0,27845.39
1133112.4534,-2856.68,24290.47,11291.7,39813.9,37361.53,27806.62
1133112.4554,-2799.8,24282.65,11153.75,39820.68,37320.57,27789.02
1133112.4574,-2791.6,24236.4,10946.89,39798.98,37246.14,27751.45
1133112.4594,-2812.24,24251.99,10929.78,39807.04,37246.18,27761.99
1133112.4614,-2807.52,24307.97,11131.48,39832.74,37319.47,27811.96
1133112.4634,-2818.3,24315.5,11255.93,39828.02,37352.04,27828.98
1133112.4654,-2831.7,24340.58,11399.7,39842.47,37405.92,27859.36
1133112.4674,-2836.56,24344.88,11486.48,39838.32,37437.06,27868.8
1133112.4694,-2832.32,24301.67,11341.53,39811.81,37376.65,27826.36
1133112.4714,-2833.08,24268.73,11180.93,39800.22,37314.94,27786.4
1133112.4734,-2811.1,24244.12,11009.69,39792.11,37259.2,27757.22
1133112.4754,-2798.99,24238.26,10896.16,39794.74,37225.49,27750.26
1133112.4774,-2794.65,24291.57,11060.53,39827.4,37289.91,27795.7
1133112.4794,-2782.92,24315.98,11214.5,39838.84,37347.13,27825.17
1133112.4814,-2806.14,24339.87,11351.49,39847.76,37392.19,27848.91
1133112.4834,-2819.4,24358.94,11499.79,39852.67,37446.03,27873.47
1133112.4854,-2821.16,24316.93,11402.56,39827.26,37408.5,27842.67
1133112.4874,-2824.31,24280.5,11234.62,39811.66,37346.56,27802.9
1133112.4894,-2817.3,24257.57,11080.74,39803.27,37292.91,27771.86
1133112.4914,-2788.11,24237.02,10908.7,39798.74,37241.42,27754.26
1133112.4934,-2783.49,24275.73,10994.82,39821.44,37277.66,27783.21
1133112.4954,-2800.94,24315.79,11172.68,39835.12,37335.11,27817.78
1133112.4974,-2810.81,24334.67,11300.61,39841.04,37376.89,27846.29
1133112.4994,-2825.12,24354.46,11464.55,39852.39,37435.73,27878.1
1133112.5014,-2832.13,24331.05,11452.25,39838.84,37429.15,27866.65
1133112.5034,-2827.17,24293.14,11294.08,39821.92,37369.97,27827.55
1133112.5054,-2827.17,24265.24,11131.0,39803.99,37306.41,27782.25
1133112.5074,-2821.06,24234.82,10950.09,39790.44,37242.7,27752.93
1133112.5094,-2808.14,24254.37,10929.06,39808.71,37248.38,27767.71
1133112.5114,-2809.72,24311.55,11129.67,39839.22,37323.91,27814.68
1133112.5134,-2814.63,24336.15,11263.09,39845.52,37366.01,27834.94
1133112.5154,-2817.2,24354.27,11414.58,39852.81,37418.23,27863.27
1133112.5174,-2834.65,24345.88,11482.62,39837.79,37435.77,27867.56
1133112.5194,-2799.42,24308.97,11355.02,39819.67,37387.42,27838.14
1133112.5214,-2780.72,24275.31,11182.36,39806.7,37321.62,27797.27
1133112.5234,-2786.11,24248.98,11022.38,39797.31,37269.5,27768.28
1133112.5254,-2790.21,24228.24,10879.76,39787.73,37219.05,27745.92
1133112.5274,-2802.94,24285.27,11055.85,39816.62,37286.52,27789.41
1133112.5294,-2819.44,24316.89,11209.68,39829.35,37339.36,27817.16
1133112.5314,-2855.49,24340.68,11351.54,39836.32,37388.62,27844.1
1133112.5334,-2863.03,24358.08,11481.43,39843.9,37438.35,27872.37
1133112.5354,-2843.81,24316.74,11410.71,39826.83,37410.03,27851.01
1133112.5374,-2822.54,24275.07,11232.19,39807.9,37342.89,27806.71
1133112.5394,-2828.5,24244.31,11081.27,39787.44,37283.47,27767.57
1133112.5414,-2796.03,24213.7,10877.52,39779.0,37217.57,27739.58
1133112.5434,-2783.2,24260.24,10986.52,39810.42,37263.78,27773.91
1133112.5454,-2802.94,24298.81,11156.46,39827.64,37323.38,27807.38
1133112.5474,-2828.22,24318.89,11297.32,39832.07,37369.45,27835.8
1133112.5494,-2828.31,24337.2,11435.41,39841.37,37424.52,27867.89
1133112.5514,-2827.69,24327.66,11452.87,39834.55,37432.01,27864.51
1133112.5534,-2840.71,24281.17,11276.63,39807.42,37361.96,27816.54
1133112.5554,-2827.22,24258.62,11146.69,39802.13,37312.08,27783.16
1133112.5574,-2795.94,24218.61,10936.74,39792.11,37244.23,27749.06
1133112.5594,-2797.79,24241.93,10925.58,39805.46,37247.09,27762.27
1133112.5614,-2806.9,24282.27,11092.62,39819.63,37302.64,27792.31
1133112.5634,-2817.39,24303.44,11246.92,39828.45,37354.71,27821.31
1133112.5654,-2827.74,24318.75,11383.01,39836.55,37402.3,27850.35
1133112.5674,-2856.83,24320.99,11476.71,39832.5,37429.24,27862.22
1133112.5694,-2852.77,24275.59,11330.46,39800.46,37366.73,27813.96
1133112.5714,-2833.8,24244.17,11179.93,39786.96,37306.36,27771.81
1133112.5734,-2803.18,24219.94,11000.44,39780.34,37249.52,27741.48
1133112.5754,-2800.75,24206.07,10873.84,39776.09,37210.95,27728.27
1133112.5774,-2829.27,24253.28,11024.62,39796.07,37263.59,27761.46
1133112.5794,-2844.38,24288.61,11199.62,39810.61,37323.62,27795.65
1133112.5814,-2841.04,24307.92,11321.69,39819.53,37370.16,27824.26
1133112.5834,-2843.81,24328.0,11475.04,39826.4,37423.57,27850.77
1133112.5854,-2838.47,24288.61,11386.63,39805.94,37389.95,27826.03
1133112.5874,-2852.92,24255.33,11226.13,39791.78,37329.96,27786.26
1133112.5893,-2839.66,24241.93,11079.74,39792.69,37285.9,27763.61
1133112.5913,-2807.81,24207.21,10886.15,39772.28,37215.33,27730.66
1133112.5933,-2794.93,24242.79,10970.21,39797.93,37250.86,27763.89
1133112.5953,-2821.68,24285.03,11159.95,39817.86,37315.52,27804.19
1133112.5973,-2827.74,24309.3,11282.87,39827.11,37362.06,27827.08
1133112.5993,-2826.02,24335.05,11447.14,39839.99,37425.43,27862.46
1133112.6013,-2844.76,24309.88,11447.76,39824.44,37421.95,27852.59
1133112.6033,-2851.58,24267.63,11280.49,39799.79,37356.91,27804.9
1133112.6053,-2843.19,24242.5,11129.57,39783.24,37295.11,27764.42
1133112.6073,-2818.78,24207.55,10935.16,39764.36,37224.96,27728.61
1133112.6093,-2794.84,24228.58,10915.85,39787.25,37231.88,27745.44
1133112.6113,-2806.38,24283.98,11117.13,39822.77,37309.79,27794.89
1133112.6133,-2829.12,24302.2,11243.2,39822.68,37348.7,27814.96
1133112.6153,-2840.47,24317.22,11377.1,39822.87,37392.38,27839.33
1133112.6173,-2835.32,24327.42,11478.38,39829.21,37434.96,27857.02
1133112.6193,-2826.5,24289.18,11346.53,39812.43,37387.95,27827.41
1133112.6213,-2810.67,24248.65,11182.98,39795.07,37322.72,27784.59
1133112.6233,-2794.55,24217.75,11010.27,39785.1,37263.06,27750.54
1133112.6253,-2790.45,24217.32,10891.87,39788.35,37231.5,27743.01
1133112.6273,-2801.85,24265.24,11042.88,39814.52,37287.05,27779.53
1133112.6293,-2814.77,24290.09,11202.05,39823.97,37339.02,27808.15
1133112.6313,-2836.9,24308.73,11337.0,39828.93,37385.85,27834.37
1133112.6333,-2855.11,24327.66,11488.11,39836.89,37439.49,27863.93
1133112.6353,-2852.77,24298.24,11412.91,39820.49,37409.5,27842.1
1133112.6373,-2844.05,24249.51,11230.23,39788.73,37331.68,27783.44
1133112.6393,-2814.63,24226.05,11077.07,39781.38,37277.61,27750.5
1133112.6413,-2778.58,24205.07,10900.69,39778.05,37227.59,27736.09
1133112.6433,-2775.86,24249.08,10981.04,39807.23,37268.55,27771.67
1133112.6453,-2803.42,24289.9,11166.0,39826.06,37333.06,27808.05
1133112.6473,-2823.64,24309.73,11292.08,39830.4,37373.88,27833.37
1133112.6493,-2838.52,24332.24,11458.45,39843.37,37436.2,27869.04
1133112.6513,-2844.76,24310.64,11457.25,39825.4,37427.0,27854.88
1133112.6533,-2832.89,24268.96,11292.13,39800.79,37360.96,27808.19
1133112.6553,-2815.77,24254.47,11144.31,39800.6,37312.42,27777.91
1133112.6573,-2810.81,24226.24,10963.44,39785.34,37252.34,27748.87
1133112.6593,-2809.0,24239.69,10927.25,39799.84,37249.47,27758.51
1133112.6613,-2816.87,24280.26,11112.12,39817.05,37310.99,27792.89
1133112.6633,-2806.76,24298.29,11245.68,39823.73,37355.14,27818.68
1133112.6653,-2807.9,24329.38,11402.32,39837.7,37414.13,27852.73
1133112.6673,-2823.5,24324.13,11479.33,39825.16,37434.11,27857.74
1133112.6693,-2821.97,24278.36,11349.49,39797.93,37382.08,27820.78
1133112.6713,-2819.25,24241.97,11174.3,39780.43,37314.18,27775.43
1133112.6733,-2818.97,24215.03,11018.47,39770.99,37260.11,27746.54
1133112.6753,-2812.43,24200.39,10871.94,39772.75,37216.48,27733.28
1133112.6773,-2825.21,24259.0,11047.08,39803.94,37284.62,27778.91
1133112.6793,-2815.2,24289.94,11205.82,39816.81,37337.02,27809.96
1133112.6813,-2830.79,24312.4,11343.62,39823.44,37384.42,27836.04
1133112.6833,-2847.34,24324.09,11469.08,39829.55,37433.68,27860.93
1133112.6853,-2849.1,24291.28,11407.19,39807.8,37408.98,27838.85
1133112.6873,-2828.79,24255.95,11229.09,39792.11,37342.7,27796.65
1133112.6893,-2804.8,24230.91,11090.09,39783.91,37292.2,27768.52
1133112.6913,-2788.69,24190.14,10877.71,39767.94,37220.43,27735.67
1133112.6933,-2815.34,24229.62,10964.82,39786.77,37255.91,27763.37
1133112.6953,-2840.38,24261.48,11130.86,39796.5,37307.27,27790.74
1133112.6973,-2831.36,24282.03,11274.63,39803.89,37355.33,27816.87
1133112.6993,-2837.37,24305.06,11418.87,39815.62,37411.98,27849.15
1133112.7013,-2845.96,24302.2,11454.87,39815.24,37427.1,27857.69
1133112.7033,-2829.17,24256.28,11279.39,39790.83,37358.48,27812.44
1133112.7053,-2825.21,24230.63,11138.39,39778.24,37299.78,27770.71
1133112.7073,-2813.15,24205.21,10936.88,39769.03,37233.74,27741.96
1133112.7093,-2809.14,24218.8,10912.42,39776.14,37227.44,27746.63
1133112.7113,-2813.77,24256.9,11081.27,39792.02,37287.38,27780.97
1133112.7133,-2808.86,24292.66,11242.68,39808.33,37346.7,27815.77
1133112.7153,-2808.19,24315.79,11375.95,39813.76,37391.52,27838.28
1133112.7173,-2833.8,24315.65,11477.66,39805.37,37422.9,27851.2
1133112.7193,-2831.32,24273.59,11343.53,39789.35,37375.5,27819.11
1133112.7213,-2827.12,24251.13,11200.67,39784.34,37324.34,27782.25
1133112.7233,-2823.59,24213.03,11013.41,39764.79,37252.53,27737.67
1133112.7253,-2792.07,24206.83,10887.81,39767.32,37214.19,27730.13
1133112.7273,-2803.42,24254.8,11033.2,39787.01,37266.07,27767.33
1133112.7293,-2830.22,24289.42,11207.39,39801.27,37326.67,27798.37
1133112.7313,-2833.7,24298.91,11324.22,39809.85,37368.64,27822.78
1133112.7333,-2828.98,24331.33,11487.82,39830.83,37438.16,27867.13
1133112.7353,-2828.22,24294.28,11410.0,39808.42,37408.02,27844.29
1133112.7373,-2823.78,24253.23,11239.91,39783.86,37339.83,27794.32
1133112.7393,-2808.52,24225.09,11080.93,39772.04,37281.52,27758.51
1133112.7413,-2808.62,24189.9,10888.24,39760.21,37217.14,27731.04
1133112.7433,-2803.76,24225.14,10958.24,39782.96,37250.71,27759.94
1133112.7453,-2800.51,24275.35,11156.13,39809.9,37326.29,27802.95
1133112.7473,-2821.49,24289.61,11275.91,39815.81,37364.44,27823.83
1133112.7493,-2844.0,24314.5,11437.08,39828.5,37425.09,27858.59
1133112.7513,-2851.53,24298.58,11455.35,39816.34,37428.38,27854.21
1133112.7533,-2829.27,24262.29,11296.75,39795.83,37365.82,27816.35
1133112.7553,-2815.53,24236.73,11148.17,39787.68,37312.7,27781.06
1133112.7573,-2817.63,24186.71,10944.18,39760.69,37233.55,27737.76
1133112.7593,-2804.47,24197.3,10901.79,39767.46,37223.01,27741.58
1133112.7613,-2815.06,24254.61,11092.81,39794.4,37294.25,27786.07
1133112.7633,-2814.96,24278.79,11229.13,39806.18,37342.31,27812.67
1133112.7653,-2837.75,24297.24,11372.85,39818.2,37396.2,27842.62
1133112.7673,-2874.37,24299.39,11471.7,39814.76,37429.48,27852.49
1133112.7693,-2865.79,24261.33,11343.29,39791.02,37378.27,27818.59
1133112.7713,-2843.19,24231.87,11184.12,39781.1,37320.76,27780.54
1133112.7733,-2817.96,24210.03,11018.61,39773.42,37265.26,27749.73
1133112.7753,-2787.69,24196.82,10881.23,39771.85,37224.49,27741.67
1133112.7773,-2788.16,24243.79,11028.1,39798.55,37280.95,27776.77
1133112.7793,-2804.04,24275.5,11192.04,39812.43,37334.16,27807.76
1133112.7813,-2819.35,24296.81,11326.41,39822.06,37380.41,27836.71
1133112.7833,-2843.9,24309.5,11474.42,39824.54,37433.29,27862.12
1133112.7853,-2856.21,24271.73,11401.23,39800.6,37402.83,27838.47
1133112.7873,-2833.37,24245.36,11239.24,39790.64,37346.03,27806.24
1133112.7893,-2826.36,24212.55,11078.41,39774.85,37284.95,27765.66
1133112.7913,-2798.99,24185.33,10903.03,39770.32,37230.69,27745.3
1133112.7933,-2801.18,24228.15,10973.6,39800.46,37266.88,27777.1
1133112.7953,-2826.5,24266.2,11148.26,39810.09,37321.72,27805.57
1133112.7973,-2823.88,24290.85,11274.34,39817.53,37362.77,27832.08
1133112.7993,-2822.02,24316.84,11441.42,39830.4,37424.09,27868.56
1133112.8013,-2832.13,24296.19,11453.96,39819.01,37427.1,27866.7
1133112.8033,-2845.48,24248.32,11293.79,39791.97,37361.1,27821.21
1133112.8053,-2831.13,24226.38,11141.21,39783.05,37302.31,27783.83
1133112.8073,-2819.63,24195.44,10962.96,39769.65,37239.22,27753.83
1133112.8093,-2813.43,24199.87,10902.31,39777.0,37224.2,27756.27
1133112.8113,-2819.25,24253.66,11095.48,39801.27,37295.78,27799.9
1133112.8133,-2829.98,24282.65,11236.38,39810.85,37346.42,27828.17
1133112.8153,-2829.74,24301.91,11383.44,39821.1,37403.3,27858.31
1133112.8173,-2834.84,24298.48,11472.75,39820.87,37434.68,27874.85
1133112.8193,-2848.1,24257.85,11353.59,39791.78,37383.94,27843.0
1133112.8213,-2853.82,24229.82,11181.4,39778.52,37317.9,27796.89
1133112.8233,-2827.6,24204.92,11031.82,39766.22,37262.83,27762.37
1133112.8253,-2790.88,24181.08,10870.93,39762.79,37215.62,27745.73
1133112.8273,-2796.89,24226.86,11027.1,39788.16,37277.04,27782.97
1133112.8293,-2811.77,24257.09,11183.79,39797.88,37331.2,27816.35
1133112.8313,-2825.79,24278.79,11319.07,39805.75,37379.03,27844.24
1133112.8333,-2851.3,24292.66,11447.76,39809.85,37423.28,27864.41
1133112.8353,-2862.07,24272.11,11407.33,39796.07,37408.64,27850.11
1133112.8373,-2850.1,24228.48,11227.94,39775.81,37336.97,27802.28
1133112.8393,-2821.64,24211.31,11094.52,39770.27,37288.43,27771.95
1133112.8413,-2811.48,24178.79,10886.29,39757.3,37220.2,27741.15
1133112.8433,-2804.18,24217.66,10965.54,39782.72,37257.63,27772.72
1133112.8453,-2807.09,24254.37,11137.39,39799.79,37316.95,27808.15
1133112.8473,-2837.66,24273.54,11277.72,39802.75,37361.67,27828.12
1133112.8493,-2853.82,24293.04,11421.82,39813.95,37414.84,27859.36
1133112.8513,-2857.35,24281.41,11460.45,39801.65,37425.81,27857.59
1133112.8533,-2859.69,24236.01,11286.26,39774.14,37356.24,27809.91
1133112.8553,-2850.77,24215.61,11152.41,39766.6,37305.26,27775.24
1133112.8573,-2818.97,24184.75,10946.47,39756.59,37238.6,27741.77
1133112.8593,-2792.79,24197.39,10909.94,39768.65,37234.17,27751.88
1133112.8613,-2794.55,24244.12,11087.37,39792.92,37298.97,27795.7
1133112.8633,-2824.02,24270.73,11239.2,39797.17,37346.18,27820.4
1133112.8653,-2848.43,24286.08,11364.13,39803.84,37389.09,27844.48
1133112.8673,-2849.91,24295.67,11481.95,39807.9,37433.82,27867.99
1133112.8693,-2842.05,24250.22,11345.77,39782.39,37382.56,27830.94
1133112.8713,-2837.04,24217.8,11192.18,39769.08,37326.15,27790.55
1133112.8733,-2822.97,24188.76,11016.89,39757.92,37264.3,27758.89
1133112.8753,-2813.2,24181.42,10881.23,39759.16,37228.83,27754.12
1133112.8773,-2820.54,24220.33,11011.36,39779.0,37275.94,27781.78
1133112.8793,-2826.4,24254.75,11187.46,39793.4,37336.07,27811.24
1133112.8813,-2833.22,24273.97,11309.05,39802.84,37379.13,27836.52
1133112.8833,-2851.77,24298.38,11470.99,39812.86,37439.02,27870.99
1133112.8853,-2853.49,24261.76,11406.38,39789.59,37410.45,27848.58
1133112.8873,-2854.54,24221.8,11239.48,39765.7,37344.13,27801.56
1133112.8893,-2844.14,24204.07,11086.61,39754.4,37286.43,27767.71
1133112.8913,-2820.35,24179.27,10902.31,39751.49,37229.21,27746.73
1133112.8933,-2811.77,24209.45,10957.91,39777.19,37258.2,27771.86
1133112.8953,-2825.45,24248.32,11147.21,39790.92,37320.57,27804.19
1133112.8973,-2843.48,24263.58,11261.94,39791.78,37356.0,27822.59
1133112.8993,-2858.35,24298.24,11425.78,39811.76,37421.99,27863.08
1133112.9013,-2865.79,24281.93,11458.02,39801.46,37431.86,27860.26
1133112.9033,-2857.4,24240.83,11302.19,39779.1,37368.83,27818.11
1133112.9053,-2834.03,24212.98,11147.55,39768.89,37313.04,27778.91
1133112.9073,-2806.14,24182.99,10959.25,39754.11,37248.28,27745.68
1133112.9093,-2788.35,24198.77,10907.7,39766.98,37239.17,27752.83
1133112.9113,-2807.28,24244.55,11091.19,39791.25,37306.46,27793.79
1133112.9133,-2819.06,24265.96,11230.61,39801.32,37352.04,27820.16
1133112.9153,-2832.51,24287.18,11372.85,39809.42,37403.25,27848.63
1133112.9173,-2843.95,24287.8,11476.33,39801.46,37436.11,27859.02
1133112.9193,-2842.0,24248.17,11351.01,39776.38,37385.18,27825.31
1133112.9213,-2830.55,24217.47,11187.55,39762.84,37323.05,27783.73
1133112.9233,-2825.21,24190.86,11025.72,39754.35,37265.69,27751.07
1133112.9253,-2821.3,24176.51,10880.19,39751.2,37220.2,27740.2
1133112.9273,-2835.08,24227.05,11020.47,39780.24,37274.89,27780.39
1133112.9293,-2857.64,24250.03,11183.17,39789.49,37327.82,27805.28
1133112.9313,-2872.75,24272.11,11313.25,39793.35,37370.3,27829.08
1133112.9333,-2875.9,24301.91,11472.27,39806.85,37431.86,27863.41
1133112.9353,-2863.12,24264.72,11413.62,39786.63,37405.69,27841.48
1133112.9373,-2853.25,24214.94,11238.24,39759.74,37337.16,27793.36
1133112.9393,-2831.65,24203.35,11094.0,39757.64,37291.44,27765.71
1133112.9413,-2825.12,24176.6,10908.22,39748.67,37231.12,27740.0
1133112.9433,-2808.52,24204.4,10953.0,39769.08,37252.1,27760.89
1133112.9453,-2815.87,24241.26,11134.44,39783.67,37313.89,27797.51
1133112.9473,-2843.43,24264.53,11262.47,39793.35,37360.2,27825.31
1133112.9493,-2873.61,24285.84,11427.36,39801.17,37417.46,27857.45
1133112.9513,-2848.43,24278.64,11455.06,39793.35,37423.9,27854.02
1133112.9533,-2813.91,24232.82,11297.27,39769.89,37364.58,27809.58
1133112.9553,-2800.23,24207.98,11140.49,39762.17,37306.46,27774.15
1133112.9573,-2806.66,24177.41,10963.01,39747.91,37245.66,27743.06
1133112.9593,-2798.22,24182.75,10893.16,39757.3,37233.02,27747.35
1133112.9613,-2808.14,24234.73,11087.8,39787.44,37307.22,27794.51
1133112.9633,-2827.6,24262.72,11226.7,39794.12,37354.28,27817.01
1133112.9653,-2842.95,24289.18,11375.09,39805.61,37408.79,27847.39
1133112.9673,-2866.89,24291.57,11470.46,39804.42,37439.49,27860.55
1133112.9693,-2883.58,24247.55,11356.5,39778.43,37390.52,27826.93
1133112.9713,-2860.88,24220.18,11186.79,39765.98,37330.01,27792.22
1133112.9733,-2837.23,24193.43,11042.31,39752.54,37275.37,27755.69
1133112.9753,-2828.84,24173.88,10873.89,39751.3,37222.15,27740.2
1133112.9773,-2841.43,24232.49,11034.35,39784.39,37284.81,27784.02
1133112.9793,-2857.64,24265.1,11194.37,39794.35,37337.69,27808.76
1133112.9813,-2835.56,24288.18,11334.8,39808.52,37391.38,27842.24
1133112.9833,-2834.18,24296.91,11461.97,39810.71,37439.4,27868.08
1133112.9853,-2841.04,24274.5,11427.5,39794.88,37426.19,27851.01
1133112.9873,-2831.94,24238.4,11247.87,39772.75,37354.09,27802.47
1133112.9893,-2830.22,24215.08,11108.54,39760.07,37299.78,27765.04
1133112.9913,-2820.16,24174.12,10893.97,39745.34,37231.83,27732.52
1133112.9933,-2808.43,24205.31,10955.1,39766.98,37260.2,27756.84
1133112.9953,-2804.95,24244.41,11124.66,39782.43,37319.28,27789.55
1133112.9973,-2831.6,24271.97,11275.63,39793.07,37373.21,27821.78
1133112.9993,-2859.78,24287.56,11413.29,39794.45,37418.56,27845.77
1133113.0013,-2879.33,24278.45,11460.97,39784.72,37431.72,27847.72
1133113.0033,-2845.24,24245.36,11306.33,39771.66,37378.74,27815.63
1133113.0053,-2831.13,24208.74,11158.94,39755.54,37317.76,27771.91
1133113.0073,-2844.48,24171.93,10951.19,39741.85,37245.66,27734.9
1133113.0093,-2837.28,24185.66,10901.17,39756.21,37238.75,27743.2
1133113.0113,-2832.79,24226.81,11068.63,39777.43,37295.78,27779.49
1133113.0133,-2845.67,24258.43,11236.62,39788.35,37350.37,27814.06
1133113.0153,-2850.29,24272.87,11356.78,39790.35,37390.86,27832.42
1133113.0173,-2847.15,24283.03,11477.38,39790.97,37435.97,27847.96
1133113.0193,-2846.0,24234.2,11345.05,39768.13,37385.18,27812.77
1133113.0213,-2828.46,24209.84,11199.76,39759.35,37329.25,27777.25
1133113.0233,-2809.43,24184.8,11030.48,39753.25,37272.84,27748.16
1133113.0253,-2814.05,24163.92,10872.08,39742.14,37219.48,27728.42
1133113.0273,-2833.22,24203.59,10999.11,39762.98,37268.6,27761.03
1133113.0293,-2855.11,24247.22,11187.89,39784.82,37337.55,27800.37
1133113.0313,-2867.75,24266.06,11306.24,39797.22,37380.65,27826.93
1133113.0333,-2860.02,24296.67,11471.32,39808.75,37441.16,27861.31
1133113.0353,-2862.36,24265.82,11418.25,39787.2,37418.85,27842.19
1133113.0373,-2858.93,24234.68,11258.7,39770.75,37358.0,27800.9
1133113.0393,-2850.53,24197.15,11093.67,39750.68,37289.43,27753.64
1133113.0413,-2817.2,24169.78,10904.03,39739.42,37228.06,27725.99
1133113.0433,-2810.19,24198.01,10943.8,39762.12,37254.34,27753.88
1133113.0453,-2831.22,24244.98,11143.07,39791.78,37329.34,27798.37
1133113.0473,-2854.44,24271.82,11275.01,39807.99,37379.89,27828.46
1133113.0493,-2877.66,24286.7,11420.92,39808.52,37426.43,27851.63
1133113.0513,-2883.01,24274.45,11460.11,39795.21,37435.58,27847.25
1133113.0533,-2860.12,24233.15,11301.28,39766.27,37370.83,27803.33
1133113.0553,-2828.17,24204.21,11146.98,39752.68,37309.03,27763.18
1133113.0573,-2788.11,24178.7,10969.02,39748.82,37252.62,27738.15
1133113.0593,-2779.34,24186.66,10898.73,39759.93,37239.89,27745.63
1133113.0613,-2808.29,24241.83,11083.56,39790.97,37311.08,27790.84
1133113.0633,-2832.51,24253.51,11216.02,39788.73,37348.89,27808.24
1133113.0653,-2859.64,24270.06,11353.21,39791.16,37394.05,27831.94
1133113.0673,-2885.39,24283.27,11472.04,39791.73,37431.91,27847.34
1133113.0693,-2891.16,24247.94,11354.26,39768.84,37384.71,27815.01
1133113.0713,-2868.84,24213.6,11188.56,39754.54,37323.86,27776.86
1133113.0733,-2838.71,24179.89,11025.91,39745.38,37266.83,27744.3
1133113.0753,-2824.4,24161.01,10866.55,39738.95,37216.24,27727.99
1133113.0773,-2819.73,24215.75,11000.3,39769.84,37272.03,27769.62
1133113.0793,-2811.96,24258.81,11174.82,39789.11,37336.74,27807.53
1133113.0813,-2832.08,24273.64,11300.85,39789.25,37374.55,27823.12
1133113.0833,-2863.03,24294.19,11463.55,39798.65,37429.24,27851.44
1133113.0853,-2867.65,24277.26,11418.82,39784.82,37412.55,27830.56
1133113.0873,-2855.49,24235.92,11242.44,39759.07,37344.36,27782.63
1133113.0893,-2836.42,24215.51,11089.8,39751.96,37289.72,27750.88
1133113.0913,-2811.15,24191.62,10912.04,39748.01,37234.84,27731.61
1133113.0933,-2806.71,24221.23,10950.52,39771.75,37255.58,27754.6
1133113.0953,-2852.54,24259.05,11130.14,39779.19,37311.7,27780.73
1133113.0973,-2877.66,24277.64,11254.69,39782.0,37352.04,27801.23
1133113.0993,-2876.52,24308.02,11419.11,39799.69,37419.04,27841.86
1133113.1013,-2879.24,24293.62,11457.64,39795.02,37431.86,27846.15
1133113.1033,-2903.27,24230.48,11299.13,39766.03,37363.68,27799.04
1133113.1053,-2912.09,24213.94,11139.35,39749.72,37300.02,27753.98
1133113.1073,-2877.14,24200.59,10975.98,39745.76,37247.81,27726.84
1133113.1093,-2814.58,24193.77,10881.43,39749.34,37222.29,27722.17
1133113.1113,-2784.3,24246.17,11069.82,39776.85,37294.77,27771.0
1133113.1133,-2788.88,24271.92,11212.73,39783.58,37338.55,27798.27
1133113.1153,-2792.79,24277.26,11340.71,39777.9,37375.36,27815.54
1133113.1173,-2816.77,24278.26,11442.0,39773.76,37409.74,27828.79
1133113.1193,-2827.12,24246.36,11346.44,39758.07,37376.6,27805.52
1133113.1213,-2824.45,24218.61,11179.11,39748.2,37318.47,27769.24
1133113.1233,-2854.3,24198.06,11037.64,39744.29,37267.59,27739.91
1133113.1253,-2894.12,24181.94,10866.02,39742.81,37215.95,27723.84
1133113.1273,-2922.25,24236.3,11012.94,39770.42,37272.22,27760.94
1133113.1293,-2858.73,24265.01,11168.58,39776.28,37321.57,27790.55
1133113.1313,-2800.04,24273.16,11298.71,39784.25,37370.02,27817.63
1133113.1333,-2786.92,24298.58,11437.94,39801.32,37428.1,27853.64
1133113.1353,-2812.67,24268.2,11405.28,39774.99,37406.59,27829.65
1133113.1373,-2818.49,24230.53,11230.76,39756.83,37339.17,27785.26
1133113.1393,-2814.96,24211.84,11099.29,39751.96,37291.91,27755.69
1133113.1413,-2817.92,24171.98,10884.0,39735.56,37214.24,27721.31
1133113.1433,-2827.36,24204.69,10932.4,39757.16,37236.89,27743.39
1133113.1453,-2832.13,24246.36,11103.06,39771.23,37293.96,27778.1
1133113.1473,-2845.76,24271.4,11251.02,39777.28,37344.41,27806.86
1133113.1493,-2873.23,24294.09,11391.83,39789.73,37398.39,27838.71
1133113.1513,-2929.59,24299.2,11462.93,39796.5,37431.67,27856.16
1133113.1533,-2926.54,24249.75,11297.32,39768.37,37363.1,27808.24
1133113.1553,-2881.77,24217.27,11148.26,39749.96,37300.07,27764.18
1133113.1573,-2853.11,24178.41,10949.23,39738.8,37233.64,27730.75
1133113.1593,-2816.3,24193.24,10889.77,39755.97,37224.82,27741.96
1133113.1613,-2841.47,24237.4,11057.04,39778.24,37286.67,27778.58
1133113.1633,-2845.0,24269.25,11218.45,39787.54,37340.36,27804.76
1133113.1652,-2819.3,24287.04,11336.09,39792.73,37385.09,27830.65
1133113.1672,-2841.04,24295.14,11467.79,39797.41,37432.63,27853.44
1133113.1692,-2828.88,24258.04,11356.93,39779.67,37389.71,27825.17
1133113.1712,-2817.11,24226.86,11199.86,39764.7,37326.1,27783.59
1133113.1732,-2825.12,24188.28,11020.42,39748.1,37260.97,27741.96
1133113.1752,-2855.54,24168.88,10861.21,39741.62,37209.28,27721.55
1133113.1772,-2878.71,24222.52,10986.95,39770.27,37256.96,27757.46
1133113.1792,-2870.75,24267.34,11174.06,39786.58,37324.39,27794.03
1133113.1812,-2848.63,24277.12,11283.54,39785.06,37356.57,27812.2
1133113.1832,-2836.42,24294.14,11443.33,39790.97,37412.5,27839.85
1133113.1852,-2855.64,24262.96,11402.66,39778.29,37396.96,27825.31
1133113.1872,-2867.22,24231.15,11242.34,39763.17,37338.36,27787.64
1133113.1892,-2847.72,24209.74,11091.42,39754.49,37282.85,27752.64
1133113.1912,-2812.34,24182.89,10910.27,39752.77,37226.87,27733.38
1133113.1932,-2811.48,24204.78,10933.31,39768.8,37239.94,27751.31
1133113.1952,-2846.19,24243.88,11120.46,39783.2,37302.64,27782.97
1133113.1972,-2898.74,24263.34,11242.58,39788.44,37341.93,27802.9
1133113.1992,-2876.71,24297.19,11401.37,39805.13,37402.25,27838.28
1133113.2012,-2832.7,24285.84,11451.15,39794.64,37420.71,27839.95
1133113.2032,-2833.65,24246.98,11303.52,39775.42,37363.58,27803.81
1133113.2052,-2834.13,24216.65,11146.93,39766.13,37304.5,27766.18
1133113.2072,-2837.37,24185.71,10966.87,39749.1,37242.8,27731.42
1133113.2092,-2838.09,24189.38,10887.15,39760.64,37225.92,27736.14
1133113.2112,-2826.21,24244.36,11067.34,39799.17,37299.59,27785.21
1133113.2132,-2825.12,24267.29,11207.25,39801.98,37342.12,27807.95
1133113.2152,-2873.13,24287.94,11348.53,39808.71,37391.24,27833.18
1133113.2172,-2906.85,24292.04,11474.52,39807.75,37432.25,27843.76
1133113.2192,-2878.95,24261.38,11369.61,39786.92,37389.43,27814.01
1133113.2212,-2837.52,24224.62,11199.09,39768.89,37320.57,27772.38
1133113.2232,-2815.1,24189.67,11038.16,39755.64,37260.97,27738.29
1133113.2252,-2830.08,24167.92,10875.89,39749.29,37208.99,27715.16
1133113.2272,-2847.96,24226.29,10996.58,39780.72,37262.21,27750.54
1133113.2292,-2808.62,24259.52,11165.91,39793.93,37322.67,27789.07
1133113.2312,-2799.23,24282.17,11298.47,39806.75,37373.45,27821.45
1133113.2332,-2849.48,24299.86,11457.83,39812.28,37428.76,27849.44
1133113.2352,-2867.08,24267.72,11416.96,39789.87,37407.78,27831.27
1133113.2372,-2846.34,24222.23,11245.78,39765.03,37338.31,27785.07
1133113.2392,-2846.81,24202.35,11097.62,39755.3,37282.42,27747.78
1133113.2412,-2861.6,24164.39,10905.03,39742.14,37216.76,27716.21
1133113.2432,-2894.26,24186.33,10922.24,39767.41,37235.55,27740.82
1133113.2452,-2930.93,24236.4,11114.26,39785.68,37300.83,27777.63
1133113.2472,-2915.95,24260.67,11243.77,39791.83,37347.75,27804.76
1133113.2492,-2874.95,24303.77,11418.73,39825.02,37425.47,27859.45
1133113.2512,-2843.05,24275.26,11449.48,39801.13,37426.91,27847.96
1133113.2532,-2808.76,24219.85,11288.07,39766.46,37360.01,27800.28
1133113.2552,-2812.67,24191.38,11128.19,39755.64,37299.35,27761.37
1133113.2572,-2826.69,24170.12,10967.97,39750.1,37245.95,27735.33
1133113.2592,-2818.06,24173.02,10870.79,39757.3,37221.72,27731.23
1133113.2612,-2828.69,24216.32,11048.65,39777.19,37285.14,27767.57
1133113.2632,-2844.05,24240.07,11193.75,39786.15,37334.54,27797.75
1133113.2652,-2866.89,24267.15,11334.13,39797.79,37384.9,27828.55
1133113.2672,-2891.87,24270.73,11442.76,39797.26,37421.8,27841.81
1133113.2692,-2913.43,24227.0,11347.25,39766.51,37375.22,27805.28
1133113.2712,-2891.83,24194.2,11175.2,39745.48,37303.4,27758.7
1133113.2732,-2862.31,24179.6,11037.78,39746.38,37261.06,27736.14
1133113.2752,-2831.89,24159.82,10858.82,39747.77,37209.8,27720.98
1133113.2772,-2846.91,24205.93,10992.24,39775.14,37261.25,27755.98
1133113.2792,-2861.83,24241.78,11153.94,39786.15,37315.8,27784.49
1133113.2812,-2887.82,24265.05,11289.93,39792.73,37364.06,27808.62
1133113.2832,-2923.06,24282.36,11425.64,39796.79,37411.31,27832.08
1133113.2852,-2884.67,24261.72,11418.15,39787.2,37409.12,27827.08
1133113.2872,-2846.72,24208.93,11231.33,39757.16,37334.35,27777.58
1133113.2892,-2849.39,24177.98,11086.61,39738.47,37274.17,27736.86
1133113.2912,-2834.51,24152.95,10884.48,39735.8,37212.76,27712.4
1133113.2932,-2842.24,24172.45,10909.13,39749.82,37225.06,27725.75
1133113.2952,-2853.92,24228.24,11091.85,39776.14,37294.44,27765.09
1133113.2972,-2864.89,24256.76,11242.1,39781.91,37344.46,27793.98
1133113.2992,-2863.74,24266.29,11372.28,39783.77,37387.8,27815.97
1133113.3012,-2860.59,24264.48,11446.53,39779.81,37412.17,27823.02
1133113.3032,-2860.83,24217.04,11288.83,39752.06,37346.08,27777.87
1133113.3052,-2845.24,24196.1,11151.84,39744.43,37295.25,27744.68
1133113.3072,-2846.38,24158.19,10953.38,39730.55,37224.11,27708.96
1133113.3092,-2837.37,24160.2,10868.5,39739.04,37203.94,27708.3
1133113.3112,-2859.12,24207.45,11034.39,39763.26,37266.21,27746.49
1133113.3132,-2901.94,24237.21,11199.05,39772.23,37319.43,27774.58
1133113.3152,-2930.45,24265.48,11326.84,39783.91,37367.78,27806.91
1133113.3172,-2900.79,24283.17,11468.36,39791.3,37420.94,27833.94
1133113.3192,-2865.89,24234.2,11350.78,39764.46,37371.93,27798.51
1133113.3212,-2861.79,24201.83,11194.18,39752.01,37313.94,27762.13
1133113.3232,-2855.83,24165.82,11025.81,39735.8,37247.23,27723.27
1133113.3252,-2840.14,24143.75,10856.34,39726.17,37189.49,27699.09
1133113.3272,-2829.46,24191.91,10965.54,39755.87,37238.08,27735.76
1133113.3292,-2846.19,24231.72,11152.79,39773.52,37306.27,27775.15
1133113.3312,-2847.62,24247.7,11266.66,39778.9,37348.37,27800.47
1133113.3332,-2892.83,24276.97,11430.03,39786.77,37405.64,27832.23
1133113.3352,-2911.95,24247.12,11402.42,39770.08,37390.09,27819.68
1133113.3372,-2907.47,24211.03,11243.01,39750.15,37327.72,27777.96
1133113.3392,-2921.63,24188.66,11101.53,39745.53,37276.32,27745.06
1133113.3412,-2950.95,24151.52,10903.17,39725.17,37206.56,27706.67
1133113.3432,-2907.09,24178.84,10908.89,39740.76,37213.85,27723.08
1133113.3452,-2828.5,24238.97,11111.31,39777.24,37295.73,27775.58
1133113.3472,-2788.64,24242.45,11222.6,39776.95,37331.54,27793.41
1133113.3492,-2796.08,24262.24,11369.37,39787.58,37390.43,27830.17
1133113.3512,-2834.61,24254.61,11429.36,39776.43,37409.5,27830.22
1133113.3532,-2845.81,24213.89,11290.74,39757.26,37352.04,27795.03
1133113.3552,-2851.82,24180.56,11130.76,39739.76,37286.33,27750.07
1133113.3572,-2824.74,24152.95,10955.57,39728.69,37226.01,27716.64
1133113.3592,-2823.4,24155.57,10864.07,39738.95,37203.6,27719.64
1133113.3612,-2844.76,24222.66,11051.27,39782.0,37283.14,27777.01
1133113.3632,-2881.34,24240.31,11185.12,39774.57,37318.76,27787.16
1133113.3652,-2908.52,24260.0,11322.6,39778.19,37363.87,27808.81
1133113.3672,-2929.78,24268.06,11453.49,39772.66,37398.53,27817.73
1133113.3692,-2916.1,24241.69,11362.32,39760.4,37366.11,27790.6
1133113.3712,-2864.27,24206.4,11193.9,39743.86,37304.26,27750.35
1133113.3732,-2818.54,24187.76,11039.64,39736.7,37248.28,27720.03
1133113.3752,-2811.96,24153.81,10858.49,39722.26,37187.77,27695.37
1133113.3772,-2836.75,24180.18,10959.67,39746.77,37230.59,27727.51
1133113.3792,-2869.08,24220.33,11138.11,39767.41,37294.63,27765.56
1133113.3812,-2887.39,24246.5,11266.19,39774.47,37339.02,27790.55
1133113.3832,-2903.27,24262.57,11426.26,39778.52,37392.29,27815.63
1133113.3852,-2896.88,24248.51,11408.38,39769.56,37385.37,27806.38
1133113.3872,-2877.05,24212.46,11243.58,39750.53,37325.05,27764.94
1133113.3892,-2875.33,24187.71,11091.9,39740.38,37271.79,27732.76
1133113.3912,-2853.68,24153.38,10902.88,39723.11,37206.46,27699.66
1133113.3932,-2820.68,24177.6,10907.56,39744.38,37219.86,27722.12
1133113.3952,-2832.37,24225.86,11103.87,39772.75,37293.96,27771.62
1133113.3972,-2881.05,24247.79,11233.66,39775.09,37331.82,27789.26
1133113.3992,-2932.36,24275.83,11391.31,39787.34,37388.9,27821.35
1133113.4012,-2906.56,24274.02,11456.92,39788.2,37415.08,27831.37
1133113.4032,-2885.91,24224.33,11312.44,39764.89,37356.91,27791.93
1133113.4052,-2892.69,24182.99,11137.87,39738.18,37281.42,27742.06
1133113.4072,-2886.58,24163.87,10977.46,39727.74,37230.93,27716.16
1133113.4092,-2853.92,24170.78,10871.36,39738.95,37205.99,27717.93
1133113.4112,-2836.47,24222.28,11046.08,39764.79,37269.22,27754.93
1133113.4132,-2822.26,24236.44,11181.69,39762.41,37306.93,27772.1
1133113.4152,-2853.97,24234.73,11302.76,39760.36,37347.8,27794.65
1133113.4172,-2879.86,24248.22,11424.45,39767.94,37394.48,27816.35
1133113.4192,-2901.94,24224.14,11354.35,39754.78,37367.44,27794.6
1133113.4212,-2905.37,24189.76,11185.6,39738.14,37300.97,27751.64
1133113.4232,-2859.5,24165.78,11044.79,39734.8,37255.86,27725.13
1133113.4252,-2806.85,24141.98,10851.86,39728.79,37194.54,27703.1
1133113.4272,-2826.02,24187.28,10968.26,39751.82,37240.89,27737.1
1133113.4292,-2886.96,24217.99,11127.85,39758.4,37289.29,27761.56
1133113.4312,-2929.88,24242.74,11270.24,39769.8,37337.59,27788.83
1133113.4332,-2899.36,24266.39,11415.67,39779.19,37388.19,27818.54
1133113.4352,-2905.32,24244.55,11413.96,39763.17,37383.94,27808.0
1133113.4372,-2863.5,24201.11,11234.67,39742.05,37319.0,27764.04
1133113.4392,-2827.02,24176.17,11098.1,39732.7,37268.07,27728.47
1133113.4412,-2804.14,24142.46,10889.58,39720.35,37199.31,27698.19
1133113.4432,-2825.36,24169.5,10904.12,39737.52,37208.28,27715.5
1133113.4452,-2848.67,24228.43,11090.38,39772.32,37285.05,27763.18
1133113.4472,-2883.48,24252.8,11239.43,39777.9,37335.3,27790.07
1133113.4492,-2902.08,24257.0,11357.93,39768.84,37368.59,27801.61
1133113.4512,-2918.34,24260.81,11448.1,39770.8,37401.82,27815.97
1133113.4532,-2930.21,24226.38,11304.19,39756.21,37345.46,27780.97
1133113.4552,-2948.14,24197.06,11161.38,39742.24,37286.14,27737.91
1133113.4572,-2923.2,24158.29,10964.68,39721.78,37213.43,27696.33
1133113.4592,-2844.43,24159.96,10867.64,39730.12,37192.06,27700.52
1133113.4612,-2852.73,24189.09,11010.55,39746.29,37243.18,27730.13
1133113.4632,-2830.7,24226.0,11180.5,39760.69,37303.02,27765.42
1133113.4652,-2818.58,24262.48,11317.3,39782.1,37361.34,27808.15
1133113.4672,-2879.24,24272.59,11457.83,39779.0,37403.87,27824.5
1133113.4692,-2885.63,24215.18,11346.63,39745.76,37355.33,27787.5
1133113.4712,-2866.7,24203.21,11209.06,39752.44,37318.0,27766.85
1133113.4732,-2850.01,24177.98,11042.41,39737.71,37252.86,27727.89
1133113.4752,-2841.57,24151.47,10863.02,39723.59,37190.49,27701.05
1133113.4772,-2854.92,24185.23,10951.71,39740.19,37224.68,27724.22
1133113.4792,-2883.24,24221.38,11134.77,39753.11,37286.52,27761.8
1133113.4812,-2919.05,24245.55,11256.51,39764.7,37331.59,27784.4
1133113.4832,-2941.18,24277.12,11422.68,39776.47,37391.48,27816.06
1133113.4852,-2903.94,24253.18,11408.47,39759.83,37382.75,27806.09
1133113.4872,-2859.31,24215.37,11250.45,39742.9,37322.53,27766.76
1133113.4892,-2870.37,24196.2,11101.82,39734.65,37267.45,27732.04
1133113.4912,-2886.25,24150.04,10900.93,39715.82,37195.64,27692.23
1133113.4932,-2868.46,24159.34,10887.72,39719.97,37191.97,27694.66
1133113.4952,-2863.26,24217.56,11090.76,39749.25,37270.22,27747.4
1133113.4972,-2850.49,24237.11,11214.78,39757.11,37312.66,27776.96
1133113.4992,-2859.07,24260.81,11366.27,39774.95,37372.21,27813.82
1133113.5012,-2885.77,24273.02,11452.87,39780.62,37409.45,27829.84
1133113.5032,-2872.75,24223.81,11302.62,39748.86,37346.22,27783.97
1133113.5052,-2853.63,24180.08,11130.86,39728.98,37277.61,27736.91
1133113.5072,-2854.4,24154.52,10964.2,39726.02,37226.2,27711.11
1133113.5092,-2840.09,24147.42,10853.53,39727.74,37195.11,27704.67
1133113.5112,-2837.56,24203.02,11019.28,39756.92,37258.44,27748.59
1133113.5132,-2857.3,24233.39,11172.2,39765.03,37307.93,27776.29
1133113.5152,-2909.42,24254.52,11315.73,39774.47,37357.19,27804.0
1133113.5172,-2948.14,24269.3,11459.54,39786.73,37413.41,27830.37
1133113.5192,-2914.67,24245.74,11376.86,39771.08,37382.56,27808.91
1133113.5212,-2899.36,24211.31,11203.86,39750.25,37313.08,27764.61
1133113.5232,-2859.02,24170.02,11031.58,39721.3,37238.46,27712.54
1133113.5252,-2812.05,24148.13,10861.06,39723.78,37195.45,27704.62
1133113.5272,-2808.67,24185.66,10956.19,39752.63,37240.32,27741.58
1133113.5292,-2819.25,24233.63,11142.54,39776.19,37307.7,27780.06
1133113.5312,-2879.43,24232.53,11248.73,39761.5,37331.16,27786.07
1133113.5332,-2940.46,24260.19,11412.34,39771.04,37387.33,27816.35
1133113.5352,-2952.48,24254.56,11415.01,39768.27,37389.66,27813.82
1133113.5372,-2919.96,24211.6,11247.83,39747.43,37328.63,27772.48
1133113.5392,-2836.28,24178.94,11095.19,39737.04,37272.98,27738.29
1133113.5412,-2805.76,24148.28,10913.8,39728.74,37216.62,27712.16
1133113.5432,-2845.24,24161.29,10889.58,39736.75,37209.23,27716.12
1133113.5452,-2890.97,24210.12,11079.31,39757.54,37273.51,27752.31
1133113.5472,-2885.29,24245.6,11222.79,39773.61,37328.2,27784.59
1133113.5492,-2856.49,24279.26,11381.34,39792.26,37392.14,27825.69
1133113.5512,-2865.41,24263.72,11438.42,39772.66,37400.92,27822.69
1133113.5532,-2909.04,24220.52,11307.86,39753.39,37349.51,27791.07
1133113.5552,-2948.24,24189.19,11141.68,39738.52,37283.81,27746.82
1133113.5572,-2898.41,24169.64,10986.19,39727.64,37227.78,27716.16
1133113.5592,-2843.48,24155.67,10857.15,39735.13,37192.73,27707.06
1133113.5612,-2843.71,24203.92,11028.39,39760.64,37256.29,27747.59
1133113.5632,-2840.23,24232.34,11180.26,39766.84,37306.36,27777.87
1133113.5652,-2822.11,24247.46,11312.53,39773.9,37355.86,27810.86
1133113.5672,-2858.93,24255.71,11426.93,39776.62,37397.68,27828.6
1133113.5692,-2920.82,24217.89,11354.5,39749.34,37364.2,27797.03
1133113.5712,-2917.96,24192.53,11191.42,39738.85,37304.31,27756.36
1133113.5732,-2904.7,24165.49,11049.18,39727.93,37252.0,27724.51
1133113.5752,-2888.63,24129.39,10842.23,39708.09,37175.23,27688.74
1133113.5772,-2852.39,24188.43,10964.2,39749.29,37236.74,27738.1
1133113.5792,-2855.97,24218.47,11124.28,39757.97,37287.14,27764.47
1133113.5812,-2870.61,24229.67,11258.65,39752.06,37324.62,27778.2
1133113.5832,-2883.15,24248.03,11402.51,39764.31,37380.75,27810.72
1133113.5852,-2904.61,24231.96,11412.38,39753.58,37382.61,27806.48
1133113.5872,-2917.67,24193.43,11237.67,39735.7,37320.38,27766.61
1133113.5892,-2891.02,24176.27,11104.97,39726.93,37268.74,27734.09
1133113.5912,-2852.11,24130.73,10885.86,39702.37,37185.58,27691.18
1133113.5932,-2888.97,24147.89,10883.24,39717.01,37189.2,27707.01
1133113.5952,-2902.56,24195.91,11063.96,39745.96,37258.92,27751.02
1133113.5972,-2894.97,24232.3,11225.37,39764.55,37319.47,27789.02
1133113.5992,-2879.24,24264.86,11366.99,39782.67,37375.98,27822.69
1133113.6012,-2856.54,24269.35,11464.41,39786.49,37414.56,27842.33
1133113.6032,-2863.74,24207.55,11298.47,39748.1,37347.99,27791.55
1133113.6052,-2879.57,24176.79,11150.41,39730.98,37287.81,27750.5
1133113.6072,-2868.65,24147.89,10967.35,39721.21,37223.39,27713.73
1133113.6092,-2839.04,24144.7,10859.68,39728.31,37196.45,27711.59
1133113.6112,-2835.56,24195.1,11013.22,39754.59,37257.25,27751.74
1133113.6132,-2860.26,24238.78,11190.27,39771.8,37317.71,27785.45
1133113.6152,-2896.02,24244.88,11299.9,39773.71,37351.71,27801.33
1133113.6172,-2929.69,24270.82,11456.44,39782.2,37408.26,27828.84
1133113.6192,-2942.28,24233.11,11367.66,39761.93,37372.59,27805.09
1133113.6212,-2912.9,24209.6,11212.3,39750.63,37319.09,27772.05
1133113.6232,-2855.83,24181.99,11048.84,39736.32,37257.1,27734.0
1133113.6252,-2811.38,24144.37,10865.88,39726.26,37198.79,27710.68
1133113.6272,-2802.71,24175.36,10942.37,39743.86,37228.73,27735.67
1133113.6292,-2830.84,24224.95,11138.2,39768.84,37299.54,27776.86
1133113.6312,-2887.2,24230.15,11244.87,39765.51,37331.82,27788.98
1133113.6332,-2942.56,24257.42,11411.48,39776.33,37388.38,27820.16
1133113.6352,-2951.34,24243.98,11417.82,39762.98,37386.8,27809.81
1133113.6372,-2897.26,24209.31,11257.36,39743.52,37327.01,27771.43
1133113.6392,-2849.05,24177.74,11099.01,39725.98,37263.78,27734.52
1133113.6412,-2811.15,24145.22,10915.81,39717.2,37205.65,27710.2
1133113.6432,-2818.2,24157.57,10886.96,39729.03,37201.79,27715.88
1133113.6452,-2849.44,24205.97,11079.41,39754.25,37273.75,27760.46
1133113.6472,-2885.49,24233.77,11212.4,39768.13,37322.33,27787.88
1133113.6492,-2908.9,24258.81,11363.94,39778.62,37377.7,27816.44
1133113.6512,-2911.9,24258.66,11445.19,39769.18,37401.2,27825.5
1133113.6532,-2893.97,24213.56,11312.53,39743.57,37342.84,27785.02
1133113.6552,-2884.91,24177.51,11149.55,39730.32,37278.23,27741.91
1133113.6572,-2893.26,24157.81,10988.86,39725.93,37226.35,27718.64
1133113.6592,-2882.53,24151.28,10864.16,39730.27,37194.07,27712.87
1133113.6612,-2855.25,24206.12,11017.23,39759.5,37258.82,27755.07
1133113.6632,-2833.22,24230.2,11171.29,39770.85,37308.89,27784.64
1133113.6652,-2855.35,24244.84,11307.91,39778.05,37355.57,27812.1
1133113.6672,-2886.58,24259.09,11452.91,39782.1,37407.55,27840.14
1133113.6692,-2880.19,24237.3,11382.06,39770.75,37381.8,27820.78
1133113.6712,-2876.23,24202.59,11208.92,39752.92,37316.61,27776.91
1133113.6732,-2887.96,24166.3,11046.74,39733.7,37252.38,27734.38
1133113.6752,-2889.2,24142.89,10873.41,39727.84,37196.26,27710.01
1133113.6772,-2880.0,24180.8,10951.66,39749.67,37228.4,27736.62
1133113.6792,-2865.41,24214.56,11127.62,39763.07,37290.29,27772.86
1133113.6812,-2881.48,24240.54,11261.18,39775.14,37338.07,27803.23
1133113.6832,-2878.71,24271.63,11423.26,39791.87,37402.3,27839.47
1133113.6852,-2846.58,24249.08,11420.3,39773.33,37397.53,27827.03
1133113.6872,-2837.18,24199.44,11251.98,39742.0,37328.72,27776.1
1133113.6892,-2846.1,24173.93,11102.39,39733.37,37272.74,27739.86
1133113.6912,-2853.92,24142.65,10920.91,39722.64,37212.85,27713.06
1133113.6932,-2858.73,24157.43,10882.95,39735.08,37206.7,27721.41
1133113.6952,-2890.68,24210.17,11078.12,39763.5,37278.61,27768.57
1133113.6972,-2902.37,24242.69,11223.27,39777.19,37327.29,27795.18
1133113.6992,-2897.41,24258.85,11361.27,39776.14,37366.87,27810.0
1133113.7012,-2898.69,24262.15,11442.61,39774.95,37396.39,27822.97
1133113.7032,-2892.59,24209.84,11303.19,39743.62,37338.79,27780.68
1133113.7052,-2858.11,24184.18,11138.39,39730.36,37277.42,27742.1
1133113.7072,-2830.74,24161.53,10989.71,39724.26,37228.73,27717.88
1133113.7091,-2827.26,24141.12,10839.27,39719.54,37182.62,27702.62
1133113.7111,-2853.82,24196.15,11011.74,39751.49,37248.9,27746.54
1133113.7131,-2881.1,24228.15,11170.2,39761.6,37300.31,27778.68
1133113.7151,-2931.45,24248.41,11309.82,39772.94,37351.37,27809.77
1133113.7171,-2999.5,24257.19,11429.36,39764.89,37387.33,27820.07
1133113.7191,-2967.74,24230.29,11371.23,39743.71,37358.91,27794.08
1133113.7211,-2872.85,24194.05,11197.85,39733.65,37300.97,27757.27
1133113.7231,-2830.79,24162.1,11049.46,39718.82,37247.47,27720.65
1133113.7251,-2819.49,24124.39,10839.27,39702.61,37176.61,27688.89
1133113.7271,-2837.99,24181.51,10945.94,39741.52,37230.07,27738.24
1133113.7291,-2878.71,24209.17,11105.87,39751.3,37280.99,27768.04
1133113.7311,-2941.42,24228.34,11250.5,39755.83,37325.58,27790.12
1133113.7331,-2944.18,24256.04,11396.6,39767.75,37381.94,27819.59
1133113.7351,-2880.19,24245.93,11423.4,39762.93,37393.62,27820.26
