TimeStamp,AF7,FP1,FP2,AF8,O1,O2,I1,I2
1051852.7181,12344.5,5396.51,-4533.82,11601.88,28252.8,4421.09,12784.29,19048.6
1051852.7221,12291.86,5303.19,-4601.05,11565.59,28296.62,4591.04,13003.4,19122.84
1051852.7261,12342.5,5397.7,-4527.04,11613.61,28324.85,4577.59,13086.46,19107.53
1051852.7301,12307.74,5406.05,-4549.22,11559.82,28216.32,4370.17,12873.84,18967.73
1051852.7341,12342.17,5404.43,-4532.81,11600.07,28232.1,4399.68,12762.17,19024.23
1051852.7381,12343.03,5354.26,-4561.19,11601.26,28296.28,4602.77,12971.59,19135.53
1051852.7421,12272.03,5316.12,-4620.55,11523.39,28241.59,4539.63,13028.58,19044.12
1051852.7461,12305.69,5399.47,-4571.63,11539.75,28239.3,4406.17,12924.39,18980.17
1051852.7501,12309.98,5384.16,-4565.72,11562.97,28220.8,4371.69,12757.88,18987.94
1051852.7541,12312.94,5333.38,-4587.84,11576.22,28274.44,4552.98,12909.32,19097.52
1051852.7581,12300.11,5335.14,-4604.91,11541.27,28275.54,4577.83,13067.72,19073.73
1051852.7621,12328.77,5419.06,-4547.26,11560.78,28256.18,4431.15,12960.01,18996.15
1051852.7661,12365.77,5453.16,-4510.69,11601.16,28256.66,4394.48,12810.99,19009.31
1051852.7701,12339.02,5372.76,-4552.27,11608.27,28291.99,4543.02,12896.87,19091.89
1051852.7741,12299.92,5336.57,-4598.62,11556.72,28279.36,4611.54,13086.75,19082.31
1051852.7781,12359.43,5454.02,-4513.69,11598.11,28276.07,4491.9,13013.17,19041.02
1051852.7821,12323.05,5428.98,-4544.97,11562.06,28206.64,4347.42,12797.55,18964.72
1051852.7861,12289.29,5338.24,-4606.3,11540.84,28208.74,4449.18,12795.16,19032.77
1051852.7901,12304.45,5337.62,-4598.48,11550.95,28262.19,4603.34,13077.21,19082.45
1051852.7941,12295.77,5388.79,-4569.44,11541.99,28212.36,4432.77,12979.94,18961.05
1051852.7981,12337.59,5456.35,-4515.03,11579.18,28220.99,4342.18,12837.6,18957.52
1051852.8021,12369.59,5430.17,-4519.27,11617.57,28281.45,4481.98,12853.53,19075.49
1051852.8061,12254.38,5287.22,-4649.93,11507.66,28242.16,4581.64,13059.81,19057.8
1051852.8101,12272.36,5358.12,-4604.2,11510.66,28231.86,4474.88,13034.58,18999.53
1051852.8141,12318.04,5441.0,-4537.77,11555.72,28233.58,4365.97,12879.66,18978.17
1051852.8181,12287.0,5366.42,-4590.51,11532.21,28216.79,4405.45,12780.91,19018.8
1051852.8221,12221.39,5263.47,-4664.95,11492.54,28242.45,4588.32,13040.4,19079.59
1051852.8261,12259.53,5339.34,-4615.26,11513.04,28236.92,4523.8,13062.05,19026.33
1051852.8301,12309.03,5431.56,-4542.92,11558.01,28224.9,4378.84,12897.73,18975.16
1051852.8341,12244.04,5340.15,-4619.69,11505.08,28176.26,4346.94,12742.62,18964.77
1051852.8381,12251.57,5301.09,-4640.68,11508.18,28239.35,4570.44,12992.86,19065.43
1051852.8421,12262.16,5338.38,-4614.88,11510.71,28255.28,4560.14,13100.29,19035.25
1051852.846,12329.01,5449.82,-4524.52,11565.5,28222.52,4390.19,12914.8,18958.62
1051852.85,12339.16,5443.0,-4528.57,11568.79,28208.21,4361.06,12767.98,18974.74
1051852.854,12348.18,5401.76,-4547.07,11590.96,28279.02,4586.65,12990.62,19093.09
1051852.858,12326.86,5397.37,-4557.37,11571.65,28261.05,4602.34,13121.32,19057.8
1051852.862,12311.6,5427.89,-4551.94,11534.5,28180.51,4363.35,12897.45,18923.52
1051852.866,12332.97,5445.39,-4533.67,11556.63,28169.92,4301.5,12727.45,18926.48
1051852.87,12322.9,5377.82,-4575.06,11557.2,28209.74,4484.7,12868.31,19027.86
1051852.874,12336.88,5394.03,-4562.47,11569.64,28259.09,4605.63,13117.22,19064.48
1051852.878,12321.62,5434.75,-4537.73,11560.73,28207.59,4399.59,12929.25,18954.76
1051852.882,12318.23,5445.19,-4524.9,11571.31,28185.28,4295.54,12734.94,18923.09
1051852.886,12302.02,5370.67,-4577.49,11558.58,28186.28,4418.23,12780.24,18978.65
1051852.89,12278.18,5335.81,-4620.41,11519.15,28237.06,4586.41,13081.5,19031.48
1051852.894,12295.72,5407.19,-4568.15,11536.36,28234.87,4454.33,12972.5,18983.22
1051852.898,12332.97,5462.6,-4527.28,11562.02,28225.28,4327.82,12761.5,18934.25
1051852.902,12256.34,5338.96,-4630.42,11494.59,28167.78,4367.26,12694.26,18927.58
1051852.906,12290.05,5351.02,-4611.3,11533.98,28249.98,4611.35,13042.17,19039.54
1051852.91,12257.01,5364.94,-4611.97,11508.37,28185.08,4441.64,12920.24,18921.9
1051852.914,12267.26,5406.19,-4580.69,11524.39,28150.51,4271.65,12682.3,18854.29
1051852.918,12309.98,5402.52,-4563.67,11567.31,28180.79,4368.35,12664.27,18932.06
1051852.922,12307.12,5372.95,-4574.97,11582.23,28236.73,4603.91,12984.71,19029.91
1051852.926,12268.45,5379.11,-4583.74,11544.99,28175.64,4478.5,12928.54,18934.3
1051852.93,12284.71,5433.46,-4548.6,11553.05,28104.4,4252.86,12657.12,18828.97
1051852.934,12321.19,5436.85,-4537.25,11572.41,28124.48,4298.16,12601.81,18896.01
1051852.938,12324.0,5395.41,-4560.47,11583.66,28177.17,4525.66,12885.33,18989.14
1051852.942,12329.96,5426.93,-4542.4,11587.62,28176.84,4493.76,12958.19,18947.03
1051852.946,12377.45,5511.43,-4481.13,11616.18,28152.28,4310.7,12723.83,18887.0
1051852.95,12345.32,5464.79,-4509.54,11605.26,28125.19,4262.07,12557.89,18871.21
1051852.954,12284.9,5361.18,-4585.46,11569.74,28161.58,4459.19,12770.7,18942.45
1051852.958,12279.18,5375.48,-4584.74,11555.82,28205.02,4529.1,12972.12,18962.77
1051852.962,12316.42,5456.73,-4529.81,11572.08,28184.89,4329.4,12760.07,18882.09
1051852.966,12282.66,5416.92,-4558.95,11546.23,28143.7,4231.36,12569.95,18841.94
1051852.97,12305.17,5391.5,-4561.04,11587.72,28252.41,4500.25,12828.73,18999.91
1051852.9744,12305.59,5394.89,-4567.34,11572.65,28295.33,4637.67,13114.93,19038.25
1051852.9784,12239.03,5378.72,-4603.58,11499.22,28160.15,4333.16,12803.13,18857.05
1051852.9824,12263.16,5415.25,-4568.67,11524.25,28126.62,4210.47,12556.94,18824.39
1051852.9864,12250.62,5355.12,-4603.91,11528.64,28177.17,4393.29,12698.13,18925.48
1051852.9904,12213.99,5311.68,-4641.53,11499.45,28200.39,4551.7,13005.54,18964.01
1051852.9944,12287.33,5429.32,-4541.87,11565.73,28165.2,4363.16,12821.72,18875.32
1051852.9984,12302.88,5455.92,-4521.94,11576.08,28097.68,4172.66,12527.37,18792.25
1051853.0024,12261.06,5363.23,-4599.14,11525.87,28081.61,4252.91,12504.05,18825.82
1051853.0064,12251.52,5344.39,-4605.25,11537.22,28143.36,4482.65,12843.99,18917.71
1051853.0104,12292.96,5428.36,-4540.01,11573.84,28134.83,4359.63,12750.44,18872.88
1051853.0144,12307.45,5460.22,-4527.14,11565.16,28042.99,4117.78,12424.38,18746.95
1051853.0184,12297.15,5411.2,-4552.17,11565.31,28045.09,4186.92,12383.18,18798.83
1051853.0224,12286.47,5370.28,-4577.59,11568.21,28127.01,4438.64,12751.1,18908.07
1051853.0264,12319.61,5434.13,-4531.24,11594.58,28125.81,4358.34,12719.25,18876.7
1051853.0304,12323.29,5468.56,-4512.98,11583.95,28069.79,4119.59,12389.18,18768.65
1051853.0344,12247.95,5372.19,-4586.12,11535.93,28041.84,4120.73,12252.71,18778.37
1051853.0379,12230.54,5316.21,-4627.42,11526.97,28135.4,4401.35,12603.0,18912.84
1051853.0419,12275.41,5381.63,-4578.45,11559.06,28180.17,4405.31,12709.19,18898.44
1051853.0459,12250.09,5397.13,-4586.03,11515.52,28087.62,4117.87,12379.08,18733.12
1051853.0499,12206.56,5341.67,-4630.76,11480.95,28060.58,4079.15,12229.59,18724.49
1051853.0539,12212.37,5305.72,-4647.54,11495.54,28162.53,4374.93,12555.17,18885.57
1051853.0579,12215.71,5325.22,-4639.29,11497.17,28177.55,4436.4,12735.56,18898.3
1051853.0619,12270.74,5424.21,-4559.09,11548.33,28133.25,4214.72,12475.54,18795.35
1051853.0659,12212.8,5361.99,-4615.83,11497.69,28049.66,4074.43,12233.93,18712.86
1051853.0699,12193.25,5295.47,-4665.09,11483.58,28092.29,4291.34,12445.98,18817.0
1051853.0739,12243.65,5348.83,-4617.41,11531.78,28158.33,4466.92,12753.58,18901.45
1051853.0779,12273.6,5429.46,-4555.18,11549.81,28096.92,4221.96,12484.22,18779.09
1051853.0819,12217.81,5381.16,-4613.07,11477.57,27976.23,4002.38,12155.77,18643.81
1051853.0859,12213.8,5336.19,-4635.29,11493.78,28032.83,4203.75,12310.74,18747.81
1051853.0899,12225.06,5342.87,-4621.51,11526.73,28102.07,4417.09,12676.05,18821.38
1051853.0939,12262.63,5420.07,-4567.96,11543.47,28061.35,4225.87,12490.08,18732.5
1051853.0979,12259.63,5425.31,-4578.64,11511.37,27999.79,4028.61,12195.87,18653.87
1051853.1019,12249.61,5374.62,-4603.24,11525.3,28023.06,4145.67,12226.73,18716.24
1051853.1059,12264.11,5374.34,-4593.61,11561.78,28120.38,4403.31,12579.78,18841.94
1051853.1099,12263.73,5403.09,-4577.11,11553.53,28069.88,4213.95,12387.23,18737.37
1051853.1139,12253.67,5413.87,-4580.69,11525.82,27995.49,3988.65,12057.73,18630.51
1051853.1179,12228.92,5351.73,-4637.0,11499.69,28018.14,4069.85,12054.4,18669.42
1051853.1219,12180.33,5275.87,-4698.71,11461.31,28104.79,4357.62,12468.72,18801.5
1051853.1259,12166.55,5298.47,-4674.96,11462.4,28067.16,4249.05,12412.03,18737.18
1051853.1299,12222.48,5378.49,-4615.5,11489.35,28058.58,4053.74,12134.51,18686.49
1051853.1339,12187.29,5320.69,-4659.22,11464.07,28027.01,4034.0,12030.56,18647.01
1051853.1379,12170.13,5271.48,-4696.04,11459.92,28100.64,4310.42,12393.71,18758.68
1051853.1419,12169.74,5286.46,-4701.42,11440.61,28074.08,4269.27,12457.56,18710.57
1051853.1459,12203.69,5365.37,-4638.82,11472.37,28027.97,4035.43,12173.13,18605.43
1051853.1499,12220.24,5371.05,-4625.61,11492.78,28027.97,4027.46,12066.32,18618.87
1051853.1539,12237.36,5341.96,-4644.16,11505.75,28131.35,4328.39,12425.95,18770.17
1051853.1579,12200.21,5321.31,-4664.14,11483.48,28123.76,4376.84,12596.66,18759.73
1051853.1619,12136.89,5306.01,-4690.55,11429.31,27959.3,4030.42,12201.22,18537.62
1051853.1658,12200.07,5365.94,-4639.1,11464.6,27972.27,3987.22,12063.27,18547.97
1051853.1698,12200.02,5332.28,-4653.45,11482.19,28058.34,4255.96,12344.79,18682.2
1051853.1738,12181.66,5319.5,-4677.39,11456.54,28085.86,4399.54,12641.57,18710.33
1051853.1778,12195.64,5372.05,-4641.91,11454.97,28028.25,4180.24,12400.68,18608.62
1051853.1818,12211.85,5398.94,-4611.06,11472.8,28008.37,4092.26,12212.33,18593.08
1051853.1858,12184.76,5332.18,-4661.08,11452.72,28071.55,4340.08,12436.58,18729.02
1051853.1898,12169.74,5314.26,-4683.64,11444.19,28134.97,4551.55,12876.42,18746.76
1051853.1938,12187.48,5378.96,-4634.86,11459.3,28096.39,4364.78,12762.69,18627.36
1051853.1978,12241.22,5454.02,-4573.39,11497.4,28121.38,4296.16,12654.16,18636.32
1051853.2018,12194.87,5390.22,-4625.99,11462.64,28149.32,4479.98,12881.28,18693.4
1051853.2058,12126.45,5321.65,-4704.38,11391.31,28191.71,4775.38,13416.34,18793.3
1051853.2098,12193.11,5426.74,-4626.7,11431.65,28178.41,4680.68,13380.91,18751.53
1051853.2138,12202.88,5467.84,-4594.18,11438.8,28101.26,4456.19,13067.63,18657.4
1051853.2178,12153.39,5387.93,-4658.03,11401.65,28079.47,4507.35,13045.36,18679.43
1051853.2218,12148.76,5354.12,-4676.58,11419.25,28155.95,4792.74,13439.85,18799.69
1051853.2258,12143.37,5369.09,-4676.87,11397.36,28117.71,4665.38,13359.45,18723.2
1051853.2298,12177.37,5426.07,-4632.71,11409.52,28040.7,4374.65,12964.44,18590.79
1051853.2338,12167.26,5393.32,-4649.31,11415.63,28032.21,4383.28,12856.63,18607.9
1051853.2378,12203.17,5391.84,-4632.09,11468.79,28148.8,4703.14,13253.83,18765.59
1051853.2418,12203.98,5414.06,-4618.12,11470.99,28125.1,4648.26,13277.06,18715.43
1051853.2458,12205.08,5436.56,-4620.08,11432.27,28028.11,4326.44,12869.03,18558.31
1051853.2498,12191.73,5405.95,-4637.81,11426.59,27989.1,4246.76,12676.19,18502.62
1051853.2538,12199.26,5377.82,-4650.45,11452.49,28101.16,4560.57,13039.73,18665.03
1051853.2578,12233.64,5422.59,-4620.7,11472.18,28141.93,4643.44,13225.6,18690.35
1051853.2618,12246.23,5465.84,-4588.51,11472.37,28062.25,4352.71,12830.69,18535.57
1051853.2658,12236.93,5452.01,-4595.42,11465.98,28036.07,4261.54,12608.1,18494.32
1051853.2698,12155.49,5335.19,-4692.84,11403.32,28058.2,4462.05,12821.06,18543.48
1051853.2738,12167.12,5353.12,-4674.63,11430.84,28132.63,4647.45,13137.68,18616.63
1051853.2778,12197.54,5411.91,-4632.09,11441.47,28082.47,4391.48,12814.09,18485.83
1051853.2818,12172.22,5388.93,-4657.75,11401.94,28017.29,4205.13,12490.85,18370.49
1051853.2858,12163.83,5339.81,-4681.64,11411.14,28077.08,4421.23,12683.11,18464.57
1051853.2898,12146.86,5315.59,-4701.42,11407.23,28133.44,4631.85,13058.04,18514.78
1051853.2937,12142.52,5346.82,-4684.07,11396.65,28043.85,4365.02,12737.7,18356.61
1051853.2977,12163.12,5378.2,-4659.03,11406.85,27997.07,4144.76,12391.47,18242.5
1051853.3017,12120.3,5300.95,-4714.87,11377.77,28016.05,4276.47,12478.16,18273.02
1051853.3057,12115.53,5278.35,-4731.51,11382.58,28082.52,4545.4,12888.96,18352.89
1051853.3097,12133.03,5318.07,-4709.2,11381.06,28017.0,4344.08,12663.65,18223.34
1051853.3137,12160.68,5365.42,-4664.47,11406.04,27966.07,4096.7,12269.07,18081.09
1051853.3177,12137.94,5312.54,-4701.23,11389.3,27951.63,4146.05,12245.56,18027.83
1051853.3217,12131.45,5280.69,-4737.85,11377.81,28027.35,4437.26,12664.56,18108.37
1051853.3257,12155.44,5326.41,-4701.71,11395.36,27994.68,4322.77,12559.56,18034.03
1051853.3297,12150.72,5345.87,-4677.49,11396.31,27889.83,3999.33,12102.7,17863.66
1051853.3337,12159.25,5333.0,-4676.39,11414.82,27912.14,4059.41,12081.05,17874.24
1051853.3377,12161.49,5307.01,-4696.18,11419.15,28040.41,4439.78,12572.58,18018.77
1051853.3417,12158.3,5331.18,-4676.15,11421.82,28035.6,4431.39,12658.98,17922.59
1051853.3457,12151.2,5351.35,-4671.96,11398.65,27934.94,4100.32,12248.57,17665.91
1051853.3497,12145.0,5334.0,-4691.84,11379.72,27944.47,4095.7,12174.04,17571.26
1051853.3537,12123.78,5290.65,-4717.64,11390.83,28042.51,4430.25,12606.72,17742.87
1051853.3577,12143.66,5326.18,-4694.37,11405.28,28080.13,4533.86,12839.18,17843.15
1051853.3617,12176.09,5388.17,-4646.25,11415.67,28011.8,4230.74,12452.27,17709.4
1051853.3657,12127.31,5335.05,-4696.56,11365.03,27936.08,4080.44,12196.21,17619.04
1051853.3697,12115.05,5281.54,-4739.57,11353.16,28013.28,4361.92,12526.8,17741.01
1051853.3737,12104.89,5284.79,-4730.42,11369.85,28070.36,4545.16,12874.8,17809.15
1051853.3777,12118.91,5332.38,-4692.89,11374.95,27980.24,4233.27,12493.85,17641.98
1051853.3817,12156.2,5373.76,-4653.31,11405.28,27951.05,4084.49,12218.91,17569.5
1051853.3857,12135.94,5320.88,-4693.75,11389.4,27997.31,4307.46,12444.5,17645.55
1051853.3897,12092.16,5277.06,-4738.52,11346.58,28038.6,4530.67,12858.54,17706.92
1051853.3937,12147.14,5361.13,-4663.75,11381.96,27996.73,4299.93,12580.73,17589.57
1051853.3977,12116.48,5336.67,-4694.51,11344.58,27885.34,4019.17,12162.45,17408.47
1051853.4017,12087.49,5275.54,-4742.19,11334.71,27919.92,4187.01,12303.4,17461.97
1051853.4057,12085.96,5264.28,-4759.31,11336.66,28004.46,4499.87,12797.88,17583.18
1051853.4097,12113.52,5319.31,-4718.07,11355.78,27954.15,4306.84,12592.27,17481.14
1051853.4137,12125.35,5347.2,-4692.13,11362.22,27895.12,4038.95,12192.44,17340.71
1051853.4177,12112.09,5307.72,-4718.02,11361.46,27938.51,4162.12,12260.06,17392.54
1051853.4216,12099.08,5283.55,-4738.43,11368.23,28042.46,4504.82,12781.86,17533.16
1051853.4256,12104.13,5309.01,-4731.46,11359.36,28006.7,4393.96,12710.62,17471.6
1051853.4296,12114.43,5338.62,-4714.11,11348.01,27926.02,4083.44,12274.17,17314.67
1051853.4336,12105.99,5310.77,-4731.94,11340.57,27936.6,4123.88,12240.79,17309.14
1051853.4376,12094.07,5269.91,-4755.45,11346.72,28034.5,4471.59,12734.32,17435.36
1051853.4416,12137.41,5336.57,-4695.37,11394.22,28057.29,4492.43,12845.71,17449.67
1051853.4456,12180.62,5413.06,-4633.52,11426.74,27991.87,4193.21,12427.24,17319.16
1051853.4496,12090.78,5315.21,-4724.41,11347.39,27879.58,4058.6,12186.48,17198.14
1051853.4536,12064.03,5257.46,-4777.29,11315.78,27957.16,4376.56,12607.72,17325.07
1051853.4576,12082.15,5289.94,-4752.26,11329.84,27972.37,4462.39,12817.29,17336.56
1051853.4616,12121.39,5353.45,-4701.09,11357.12,27884.63,4151.15,12377.55,17182.54
1051853.4656,12111.9,5328.32,-4726.93,11332.94,27849.73,4026.22,12142.99,17094.52
1051853.4696,12120.39,5316.16,-4719.78,11375.62,27951.67,4332.83,12502.34,17216.4
1051853.4736,12133.41,5338.19,-4710.25,11388.78,28006.18,4519.08,12851.34,17284.2
1051853.4776,12156.25,5378.87,-4684.31,11382.2,27906.85,4194.31,12444.55,17108.87
1051853.4816,12167.69,5390.79,-4670.48,11382.58,27862.36,4008.96,12132.69,17001.06
1051853.4856,12139.7,5330.56,-4706.67,11380.63,27932.17,4248.52,12381.36,17083.55
1051853.4896,12130.31,5317.59,-4723.88,11374.24,28027.39,4526.81,12849.19,17195.27
1051853.4936,12126.97,5343.34,-4710.25,11358.17,27924.06,4240.27,12493.09,17030.62
1051853.4976,12144.23,5365.99,-4690.12,11357.26,27866.8,3997.99,12105.42,16913.94
1051853.5016,12107.09,5300.86,-4743.72,11329.56,27909.62,4154.02,12236.31,16943.74
1051853.5056,12102.99,5285.88,-4758.45,11338.28,28007.94,4475.88,12708.76,17048.98
1051853.5096,12093.83,5297.57,-4759.5,11323.12,27936.32,4255.72,12467.81,16896.68
1051853.5136,12077.95,5290.56,-4767.85,11294.41,27825.31,3911.26,11969.9,16653.21
1051853.5176,12082.29,5269.43,-4777.77,11305.76,27878.81,4029.56,12010.24,16625.84
1051853.5216,12082.96,5250.65,-4781.72,11334.13,27974.94,4371.55,12473.01,16733.65
1051853.5256,12091.92,5278.54,-4756.36,11347.1,27919.58,4235.89,12329.72,16637.8
1051853.5296,12138.42,5339.91,-4698.09,11387.59,27837.42,3886.32,11777.21,16464.14
1051853.5336,12107.56,5282.93,-4747.11,11349.54,27810.15,3859.47,11608.98,16416.93
1051853.5376,12077.29,5222.99,-4800.08,11330.03,27890.64,4186.11,12032.89,16541.1
1051853.5416,12081.05,5249.17,-4783.34,11330.42,27872.99,4194.16,12134.7,16547.16
1051853.5456,12128.64,5318.64,-4728.84,11346.58,27799.04,3890.56,11741.54,16411.21
1051853.5495,12088.35,5282.5,-4759.69,11318.35,27781.59,3866.39,11675.41,16387.04
1051853.5535,12103.37,5281.07,-4757.69,11346.77,27921.78,4286.43,12237.41,16619.26
1051853.5575,12111.38,5304.0,-4749.39,11346.25,27954.53,4423.71,12558.41,16713.76
1051853.5615,12096.45,5316.64,-4754.11,11310.24,27826.5,4084.3,12138.13,16602.38
1051853.5655,12107.04,5327.18,-4742.0,11313.77,27805.71,3987.12,11977.96,16584.16
1051853.5695,12084.96,5282.12,-4769.99,11315.3,27903.66,4319.24,12402.25,16780.9
1051853.5735,12087.63,5300.0,-4756.12,11327.32,27979.52,4563.33,12842.18,16969.97
1051853.5775,12120.68,5360.65,-4704.24,11351.59,27900.65,4259.49,12476.54,16875.98
1051853.5815,12129.12,5370.67,-4693.6,11352.54,27857.45,4078.53,12188.2,16817.0
1051853.5855,12150.96,5364.47,-4689.5,11389.26,27969.55,4379.13,12510.35,16997.96
1051853.5895,12103.8,5317.83,-4749.49,11334.28,28021.15,4646.97,12982.08,17144.97
1051853.5935,12112.67,5355.64,-4713.06,11345.29,27954.2,4409.17,12678.29,17105.72
1051853.5975,12120.58,5376.39,-4692.7,11345.44,27897.03,4157.35,12304.16,17007.54
1051853.6015,12072.95,5297.76,-4761.55,11297.42,27902.7,4271.22,12402.35,17025.14
1051853.6055,12073.38,5283.83,-4778.05,11296.46,28008.8,4621.94,12941.74,17214.97
1051853.6095,12097.79,5328.61,-4748.3,11305.86,27933.98,4411.79,12699.41,17153.98
1051853.6135,12089.16,5336.29,-4744.96,11293.08,27817.35,4058.5,12202.41,17000.58
1051853.6175,12069.42,5293.47,-4776.43,11283.07,27849.11,4166.79,12272.41,17045.64
1051853.6215,12049.15,5255.89,-4808.14,11270.81,27934.98,4530.62,12802.08,17215.02
1051853.6255,12087.97,5319.64,-4747.44,11315.3,27915.67,4445.65,12753.2,17225.79
1051853.6295,12116.24,5368.09,-4701.42,11340.57,27827.03,4107.14,12261.06,17096.9
1051853.6335,12124.35,5354.55,-4710.77,11341.14,27855.11,4159.64,12239.89,17163.18
1051853.6375,12093.97,5298.81,-4763.08,11309.58,27943.9,4525.9,12769.94,17325.5
1051853.6415,12093.35,5322.7,-4745.39,11318.64,27917.25,4515.79,12850.57,17338.18
1051853.6455,12143.9,5394.46,-4682.64,11352.54,27840.47,4177.14,12357.19,17211.25
1051853.6495,12136.79,5377.72,-4693.51,11342.05,27843.57,4134.37,12217.57,17206.81
1051853.6535,12109.14,5322.41,-4746.53,11317.54,27937.7,4481.32,12692.5,17370.37
1051853.6575,12104.37,5332.66,-4741.57,11325.84,27955.49,4592.32,12946.18,17430.98
1051853.6615,12147.24,5399.04,-4685.59,11351.78,27869.61,4250.05,12470.58,17312.81
1051853.6655,12197.88,5444.29,-4636.15,11398.51,27874.52,4150.96,12251.43,17289.74
1051853.6695,12146.76,5371.95,-4693.22,11371.33,27940.61,4449.89,12622.41,17431.17
1051853.6735,12101.84,5333.85,-4738.95,11333.66,27971.89,4637.29,12991.24,17535.35
1051853.6774,12109.23,5364.66,-4721.36,11322.88,27880.24,4305.27,12569.24,17408.18
1051853.6814,12131.5,5390.12,-4692.79,11344.43,27845.82,4109.24,12243.7,17330.51
1051853.6854,12088.06,5315.3,-4764.61,11293.7,27880.62,4329.4,12506.2,17421.72
1051853.6894,12100.65,5329.18,-4747.3,11324.88,27983.34,4659.84,13042.5,17616.85
1051853.6934,12125.68,5370.86,-4711.01,11339.24,27912.81,4398.54,12711.24,17514.18
1051853.6974,12107.66,5362.08,-4720.07,11321.93,27807.76,4080.87,12242.99,17347.86
1051853.7014,12083.48,5313.59,-4760.31,11300.28,27854.68,4265.45,12421.61,17455.87
1051853.7054,12061.07,5286.17,-4796.22,11279.01,27939.51,4612.78,12990.76,17632.53
1051853.7094,12063.65,5304.86,-4789.97,11265.9,27860.07,4396.11,12763.22,17544.27
1051853.7134,12078.81,5333.52,-4755.45,11282.87,27778.96,4076.67,12262.87,17415.95
1051853.7174,12108.76,5341.24,-4733.04,11318.59,27834.23,4213.62,12346.94,17484.48
1051853.7214,12066.27,5282.97,-4783.39,11287.6,27923.35,4583.45,12914.37,17658.81
1051853.7254,12068.94,5307.1,-4769.42,11288.31,27877.0,4456.19,12839.27,17610.03
1051853.7294,12108.23,5356.79,-4726.03,11313.2,27777.29,4073.24,12289.86,17457.63
1051853.7334,12103.03,5333.9,-4747.39,11296.27,27789.79,4098.56,12252.38,17508.51
1051853.7374,12095.74,5310.44,-4772.71,11293.13,27921.11,4519.32,12848.04,17718.56
1051853.7414,12098.22,5335.81,-4751.06,11310.1,27918.25,4536.58,12968.73,17738.49
1051853.7454,12093.31,5353.88,-4730.75,11310.86,27804.04,4150.34,12413.31,17560.39
1051853.7494,12111.0,5360.08,-4714.78,11335.09,27804.57,4102.14,12263.39,17528.63
1051853.7534,12099.36,5325.65,-4744.2,11314.49,27925.35,4483.56,12785.34,17714.79
1051853.7574,12088.06,5324.84,-4761.84,11287.64,27948.76,4593.56,13066.77,17761.57
1051853.7614,12103.37,5362.32,-4727.55,11301.09,27840.05,4210.76,12548.16,17587.09
1051853.7654,12117.82,5372.86,-4709.34,11323.17,27816.73,4076.77,12284.95,17517.81
1051853.7694,12137.37,5359.6,-4722.6,11335.85,27943.95,4433.01,12740.52,17691.95
1051853.7734,12107.09,5336.76,-4749.73,11316.44,27985.91,4651.83,13164.43,17796.66
1051853.7774,12118.25,5371.48,-4722.02,11322.02,27861.17,4283.62,12682.2,17610.41
1051853.7814,12117.34,5364.7,-4731.85,11299.71,27792.6,4051.92,12301.88,17488.43
1051853.7854,12064.6,5290.27,-4786.59,11275.82,27841.62,4295.06,12584.83,17590.0
1051853.7894,12070.85,5297.18,-4787.06,11284.11,27940.42,4617.64,13136.25,17745.54
1051853.7934,12075.38,5315.69,-4785.2,11255.65,27830.27,4305.36,12748.34,17607.5
1051853.7974,12096.64,5341.29,-4757.45,11271.76,27765.52,4030.85,12303.64,17497.49
1051853.8014,12083.34,5306.58,-4778.29,11276.15,27830.03,4231.45,12493.66,17583.04
1051853.8053,12060.93,5277.35,-4806.66,11264.66,27923.4,4589.08,13094.62,17725.37
1051853.8093,12094.69,5335.81,-4753.35,11298.32,27865.79,4386.33,12873.41,17647.65
1051853.8133,12105.99,5359.03,-4728.99,11300.71,27767.71,4035.38,12328.48,17483.62
1051853.8173,12115.53,5349.92,-4728.13,11313.87,27827.7,4170.61,12411.69,17550.71
1051853.8213,12085.39,5307.1,-4768.13,11297.61,27924.97,4557.32,13009.07,17710.5
1051853.8253,12087.35,5328.27,-4759.84,11290.74,27890.4,4461.29,12968.64,17688.13
1051853.8293,12077.24,5322.84,-4772.38,11257.08,27736.09,4023.17,12355.04,17475.51
1051853.8333,12069.27,5300.57,-4780.67,11255.89,27742.1,4030.75,12292.86,17466.93
1051853.8373,12077.95,5295.42,-4782.72,11272.19,27890.16,4467.58,12920.48,17685.56
1051853.8413,12069.47,5303.19,-4787.25,11263.61,27881.1,4481.32,13054.56,17698.96
1051853.8453,12107.56,5361.22,-4731.61,11299.04,27783.3,4097.65,12479.35,17521.57
1051853.8493,12107.8,5349.73,-4741.0,11293.6,27774.0,4032.8,12293.15,17479.52
1051853.8533,12144.76,5365.61,-4709.82,11351.83,27939.32,4469.3,12860.63,17709.45
1051853.8573,12054.59,5288.7,-4794.31,11264.42,27893.55,4536.82,13097.48,17706.59
1051853.8613,12082.29,5336.09,-4759.65,11274.01,27797.32,4159.93,12569.67,17542.22
1051853.8653,12094.26,5341.24,-4747.63,11280.82,27761.18,4006.05,12264.44,17464.21
1051853.8693,12092.21,5314.4,-4764.65,11294.41,27866.61,4348.9,12691.17,17622.09
1051853.8733,12071.66,5301.57,-4785.82,11283.97,27924.45,4591.89,13162.9,17734.82
1051853.8773,12099.41,5348.06,-4743.2,11296.42,27832.56,4259.49,12710.72,17610.98
1051853.8813,12092.64,5341.53,-4747.63,11278.54,27758.27,4003.48,12296.11,17463.59
1051853.8853,12048.91,5274.11,-4806.33,11246.83,27808.43,4244.61,12583.3,17540.5
1051853.8893,12064.51,5291.27,-4793.69,11271.24,27932.84,4612.35,13190.22,17736.48
1051853.8933,12077.24,5323.46,-4769.37,11276.39,27825.98,4297.5,12799.17,17579.75
1051853.8973,12076.38,5333.81,-4764.37,11265.14,27726.22,3969.24,12292.67,17401.41
1051853.9013,12060.12,5292.37,-4794.31,11258.08,27780.2,4153.78,12483.03,17484.95
1051853.9053,12048.29,5268.91,-4820.59,11247.59,27870.8,4509.64,13103.77,17614.56
1051853.9093,12071.04,5307.34,-4799.41,11249.26,27813.87,4311.94,12894.11,17525.48
1051853.9133,12105.56,5355.17,-4745.67,11291.89,27746.39,3982.35,12366.2,17388.35
1051853.9173,12093.21,5328.85,-4756.98,11295.27,27771.24,4071.0,12406.26,17422.01
1051853.9213,12080.58,5303.43,-4784.44,11280.68,27893.5,4487.32,13049.08,17592.34
1051853.9253,12087.16,5326.84,-4781.34,11266.42,27867.51,4419.28,13015.7,17548.37
1051853.9293,12106.23,5358.98,-4751.87,11278.06,27755.55,4026.99,12381.36,17357.88
1051853.9332,12124.35,5358.46,-4748.44,11292.17,27766.85,4054.74,12275.51,17356.02
1051853.9372,12126.49,5338.14,-4767.37,11297.7,27892.83,4474.21,12871.36,17535.12
1051853.9412,12120.58,5348.06,-4765.13,11285.12,27881.29,4494.81,13011.36,17550.28
1051853.9452,12137.61,5382.35,-4729.13,11295.03,27770.62,4093.79,12406.54,17380.24
1051853.9492,12147.86,5385.07,-4714.87,11312.63,27778.25,4034.57,12213.76,17363.88
1051853.9532,12158.3,5369.38,-4723.64,11328.08,27904.42,4439.4,12756.4,17581.32
1051853.9572,12140.32,5363.7,-4743.43,11300.99,27934.32,4581.5,13097.43,17647.75
1051853.9612,12111.81,5354.07,-4760.08,11257.36,27796.32,4147.67,12509.87,17437.84
1051853.9652,12114.34,5352.35,-4752.97,11269.0,27762.46,3976.01,12184.96,17368.18
1051853.9692,12112.57,5322.74,-4750.35,11312.25,27853.02,4307.65,12616.68,17524.1
1051853.9732,12106.85,5332.23,-4746.06,11326.98,27897.79,4546.36,13099.48,17635.97
1051853.9772,12102.03,5362.89,-4730.08,11314.01,27775.58,4172.28,12596.85,17479.33
1051853.9812,12088.01,5357.55,-4726.08,11304.19,27713.68,3919.13,12173.32,17366.94
1051853.9852,12069.61,5317.35,-4756.17,11299.18,27779.58,4176.0,12491.51,17475.99
1051853.9892,12080.67,5328.51,-4747.82,11329.32,27874.71,4521.61,13112.83,17643.12
1051853.9932,12094.21,5365.66,-4718.4,11348.87,27800.04,4242.85,12773.61,17539.74
1051853.9972,12128.26,5409.15,-4674.39,11380.77,27727.32,3937.96,12258.91,17395.16
1051854.0012,12100.41,5364.61,-4704.67,11363.22,27770.33,4110.38,12408.73,17449.33
1051854.0052,12095.74,5353.5,-4721.12,11367.42,27897.08,4526.9,13090.85,17633.34
1051854.0092,12082.15,5358.65,-4718.64,11354.02,27813.1,4322.48,12845.37,17548.61
1051854.0132,12126.88,5413.2,-4665.18,11386.68,27737.24,3978.21,12273.65,17393.45
1051854.0172,12155.25,5418.59,-4657.84,11409.0,27800.85,4103.99,12332.01,17453.01
1051854.0212,12127.97,5388.64,-4678.87,11414.67,27921.73,4535.72,13005.4,17646.08
1051854.0252,12119.72,5403.09,-4679.11,11399.08,27870.71,4450.27,12974.88,17615.13
1051854.0292,12175.42,5470.18,-4610.49,11445.48,27784.64,4074.53,12362.67,17468.88
1051854.0332,12113.1,5390.22,-4677.92,11389.26,27725.94,4016.3,12218.43,17399.36
1051854.0372,12068.27,5331.9,-4727.79,11364.46,27825.84,4412.08,12844.9,17566.44
1051854.0412,12090.73,5369.09,-4706.91,11378.34,27856.59,4482.65,13086.94,17623.09
1051854.0452,12113.72,5408.48,-4681.16,11379.72,27746.63,4073.67,12480.64,17454.1
1051854.0492,12100.84,5390.88,-4691.94,11375.48,27732.9,3977.92,12269.74,17400.74
1051854.0532,12065.94,5337.76,-4733.13,11353.02,27847.58,4358.39,12835.36,17560.29
1051854.0572,12052.59,5329.04,-4754.83,11319.11,27893.74,4523.09,13237.19,17642.17
1051854.0612,12074.47,5367.47,-4720.45,11337.57,27790.69,4129.98,12682.63,17477.13
1051854.0652,12083.67,5376.63,-4704.81,11353.06,27742.72,3933.19,12326.91,17358.11
1051854.0692,12053.49,5327.65,-4751.54,11331.04,27829.98,4267.03,12776.33,17499.69
1051854.0732,12045.05,5325.79,-4763.7,11322.5,27900.56,4554.18,13316.16,17634.78
1051854.0772,12052.59,5349.83,-4741.29,11325.79,27786.93,4199.51,12830.88,17484.09
1051854.0812,12065.22,5363.18,-4730.18,11323.93,27717.59,3926.18,12376.98,17337.13
1051854.0852,12071.42,5350.3,-4723.17,11353.4,27814.3,4215.81,12719.3,17463.88
1051854.0892,12068.7,5346.11,-4731.99,11350.92,27912.67,4577.4,13359.98,17626.0
1051854.0932,12088.49,5384.26,-4701.52,11366.18,27829.6,4302.22,13016.89,17520.0
1051854.0972,12099.7,5403.71,-4687.79,11362.55,27747.01,3978.11,12496.66,17367.98
1051854.1012,12076.81,5367.71,-4711.01,11360.6,27787.64,4149.63,12666.37,17417.43
1051854.1052,12101.84,5388.69,-4689.6,11402.7,27929.02,4582.26,13378.81,17615.8
1051854.1092,12199.07,5500.89,-4578.3,11496.07,27946.86,4473.11,13277.25,17630.2
1051854.1132,12098.79,5405.76,-4678.3,11369.28,27730.8,3986.65,12588.55,17354.16
1051854.1172,12079.19,5373.43,-4701.19,11355.31,27729.61,4042.63,12589.27,17348.43
1051854.1212,12031.94,5314.92,-4760.5,11319.59,27808.86,4425.19,13224.13,17494.63
1051854.1251,12034.47,5334.23,-4752.97,11316.16,27780.2,4362.63,13250.16,17489.86
1051854.1291,12077.57,5391.41,-4698.32,11350.3,27698.09,3988.46,12666.75,17355.59
1051854.1331,12092.97,5390.07,-4686.79,11374.19,27697.52,3972.24,12543.73,17309.24
1051854.1371,12074.04,5350.3,-4722.93,11363.17,27824.74,4405.21,13179.54,17509.41
1051854.1411,12075.14,5369.0,-4710.87,11363.46,27840.67,4481.55,13402.03,17554.19
1051854.1451,12092.02,5404.19,-4676.72,11369.75,27736.91,4081.15,12800.12,17386.15
1051854.1491,12088.3,5391.5,-4693.17,11359.6,27728.61,3990.03,12572.62,17345.38
1051854.1531,12067.46,5347.73,-4732.99,11342.91,27846.1,4376.27,13104.63,17500.12
1051854.1571,12058.64,5352.74,-4737.09,11336.04,27890.35,4564.67,13501.6,17596.91
1051854.1611,12063.74,5375.29,-4721.93,11326.6,27774.38,4162.74,12948.13,17423.44
1051854.1651,12063.89,5372.86,-4715.78,11327.7,27724.36,3959.23,12578.68,17316.72
1051854.1691,12064.27,5344.2,-4733.52,11341.57,27826.07,4295.59,12999.39,17456.68
1051854.1731,12041.47,5324.98,-4760.55,11317.16,27906.09,4589.51,13538.79,17597.34
1051854.1771,12034.56,5337.76,-4754.45,11295.7,27791.88,4226.26,13048.32,17439.99
1051854.1811,12060.69,5365.09,-4726.36,11313.34,27724.6,3953.41,12582.49,17307.24
1051854.1851,12065.32,5346.58,-4735.14,11325.31,27797.89,4204.32,12866.45,17405.94
1051854.1891,12049.82,5334.71,-4748.92,11324.93,27885.39,4557.23,13476.75,17563.87
1051854.1931,12086.39,5388.31,-4692.84,11367.66,27825.84,4301.21,13165.57,17481.76
1051854.1971,12110.62,5414.87,-4677.11,11359.17,27726.7,3956.03,12629.08,17315.68
1051854.2011,12042.86,5333.57,-4745.29,11298.13,27716.26,4061.7,12730.5,17322.16
1051854.2051,12005.24,5295.75,-4775.57,11289.41,27817.73,4461.86,13395.69,17497.21
1051854.2091,12050.92,5358.27,-4725.98,11323.26,27766.18,4306.89,13229.18,17446.71
1051854.2131,12115.38,5431.56,-4662.23,11362.17,27686.65,3951.93,12677.29,17300.56
1051854.2171,12085.34,5385.69,-4701.33,11343.19,27688.03,4003.24,12672.24,17300.13
1051854.2211,12097.26,5382.2,-4703.33,11365.08,27823.59,4443.17,13349.53,17500.55
1051854.2251,12093.21,5394.32,-4692.27,11362.94,27808.0,4398.63,13389.45,17508.56
1051854.2291,12119.96,5434.32,-4652.93,11385.87,27711.97,4006.48,12790.25,17343.48
1051854.2331,12120.15,5419.49,-4669.86,11377.38,27714.64,3979.87,12660.27,17309.1
1051854.2371,12092.5,5371.09,-4720.5,11353.97,27828.74,4393.01,13259.79,17484.71
1051854.2411,12072.18,5369.81,-4723.74,11339.57,27837.9,4479.79,13486.29,17533.45
1051854.2451,12079.96,5390.69,-4704.71,11332.8,27719.21,4069.33,12865.4,17354.97
1051854.2491,12070.09,5374.1,-4714.54,11320.78,27718.17,3958.27,12630.56,17294.7
1051854.253,12051.63,5330.85,-4752.35,11307.67,27839.47,4346.18,13154.46,17463.02
1051854.257,12038.33,5331.09,-4762.36,11297.32,27884.77,4541.16,13552.81,17544.94
1051854.261,12074.81,5387.02,-4705.29,11333.99,27794.84,4162.93,13012.12,17384.25
1051854.265,12056.92,5361.7,-4724.55,11309.96,27718.69,3929.33,12617.21,17245.91
1051854.269,12049.82,5331.14,-4749.01,11315.87,27805.43,4238.46,13007.93,17365.7
1051854.273,12058.74,5346.2,-4743.2,11325.98,27894.17,4549.93,13573.12,17512.94
1051854.277,12062.84,5375.58,-4729.18,11310.15,27786.64,4204.94,13117.51,17359.02
1051854.281,12115.19,5424.88,-4671.43,11362.84,27723.36,3928.18,12656.55,17214.87
1051854.285,12112.33,5405.9,-4674.72,11381.72,27791.46,4173.8,12941.79,17315.68
1051854.289,12047.72,5344.73,-4738.09,11333.71,27828.12,4485.99,13522.05,17418.67
1051854.293,12077.24,5396.56,-4685.31,11361.79,27760.13,4248.24,13231.47,17347.77
1051854.297,12136.6,5459.02,-4629.33,11401.46,27643.68,3881.07,12655.97,17160.37
1051854.301,12141.23,5433.23,-4661.8,11380.01,27677.68,4026.99,12787.96,17209.39
1051854.305,12110.85,5395.84,-4701.19,11354.54,27787.5,4438.59,13453.01,17387.3
1051854.309,12128.97,5433.99,-4673.91,11368.09,27751.4,4299.45,13328.03,17340.38
1051854.313,12166.93,5483.06,-4621.79,11405.99,27675.82,3941.68,12785.15,17190.51
1051854.317,12200.88,5505.66,-4573.68,11475.18,27707.01,4015.97,12781.48,17207.34
1051854.321,12153.29,5445.72,-4633.43,11420.92,27800.47,4406.5,13388.68,17343.09
1051854.325,12182.05,5489.3,-4592.99,11465.88,27806.91,4401.02,13444.71,17331.51
1051854.329,12222.58,5548.05,-4535.87,11508.28,27745.82,4037.33,12884.57,17153.46
1051854.333,12183.43,5498.31,-4586.98,11444.9,27730.95,3991.18,12724.31,17094.09
1051854.337,12121.39,5414.53,-4664.28,11404.56,27795.6,4357.77,13238.86,17222.03
1051854.341,12150.15,5461.07,-4617.21,11452.34,27843.38,4481.27,13495.49,17286.73
1051854.345,12108.33,5446.53,-4629.04,11428.17,27692.56,4028.99,12855.44,17073.35
1051854.349,12120.2,5452.06,-4610.4,11454.77,27677.78,3905.58,12599.04,16990.71
1051854.353,12066.99,5388.4,-4678.82,11393.12,27787.16,4283.67,13105.97,17124.61
1051854.357,12030.65,5364.66,-4712.63,11372.38,27826.79,4487.75,13516.48,17196.47
1051854.361,12088.25,5441.62,-4634.95,11439.23,27736.29,4130.03,13004.59,17019.27
1051854.365,12108.04,5460.17,-4605.15,11463.69,27689.51,3913.16,12647.73,16883.09
1051854.369,12054.02,5375.58,-4678.44,11419.06,27749.92,4192.73,13019.09,16995.0
1051854.373,12024.26,5348.97,-4710.63,11400.65,27788.07,4463.48,13518.24,17116.83
1051854.377,12120.2,5476.05,-4589.51,11489.82,27749.02,4198.6,13148.98,17010.64
1051854.3809,12169.6,5532.69,-4531.43,11533.45,27692.04,3931.71,12702.94,16856.58
1051854.3849,12168.12,5507.95,-4547.07,11540.8,27757.31,4167.6,12956.0,16920.14
1051854.3889,12173.32,5509.23,-4556.37,11540.84,27869.04,4536.92,13582.28,16988.95
1051854.3929,12170.89,5523.87,-4553.13,11511.71,27745.54,4250.15,13231.23,16667.27
1051854.3969,12154.49,5516.24,-4554.75,11495.45,27618.03,3867.53,12641.05,16422.8
1051854.4009,12153.25,5488.78,-4567.77,11503.89,27666.67,4008.82,12747.34,16189.24
1051854.4049,12163.07,5487.16,-4577.54,11512.09,27813.1,4446.46,13399.89,16088.63
1051854.4089,12195.68,5538.85,-4534.63,11545.56,27799.9,4331.73,13274.96,16002.7
1051854.4129,12212.42,5572.13,-4495.57,11572.55,27706.91,3947.21,12688.5,15356.69
1051854.4169,12168.65,5513.48,-4549.93,11524.39,27725.75,3996.66,12637.33,15466.74
1051854.4209,12127.31,5457.83,-4597.66,11502.84,27840.57,4399.54,13211.54,15772.25
1051854.4249,12125.92,5471.52,-4588.89,11512.23,27815.77,4363.87,13245.06,15825.13
1051854.4289,12179.42,5544.47,-4518.46,11558.87,27732.76,3993.18,12658.98,15720.51
1051854.4329,12109.47,5465.17,-4591.89,11491.63,27676.92,3906.97,12433.01,15769.1
1051854.4369,12084.39,5421.11,-4626.99,11492.54,27802.18,4318.43,12949.9,16098.36
1051854.4409,12071.47,5433.8,-4613.97,11505.99,27825.22,4419.9,13172.34,16126.87
1051854.4449,12089.3,5472.18,-4577.73,11514.38,27730.52,4041.67,12625.08,15765.14
1051854.4489,12098.65,5470.71,-4582.93,11510.99,27679.73,3885.79,12312.08,15929.37
1051854.4529,12117.43,5468.46,-4575.35,11548.81,27775.43,4227.88,12740.04,16236.74
1051854.4569,12098.65,5461.98,-4575.3,11551.52,27817.06,4429.67,13124.66,16446.54
1051854.4609,12068.18,5460.79,-4577.26,11526.54,27690.13,4040.77,12561.23,16317.99
1051854.4649,12144.57,5531.26,-4526.04,11555.63,27684.74,3860.0,12212.8,16181.42
1051854.4689,12116.15,5469.47,-4575.01,11537.31,27713.97,4081.44,12453.61,16308.12
1051854.4729,12103.13,5458.5,-4580.74,11548.14,27764.8,4349.42,12894.35,16660.88
1051854.4769,12127.54,5510.47,-4539.59,11561.35,27663.95,4035.14,12445.02,16654.78
1051854.4809,12135.13,5538.89,-4504.06,11582.66,27602.87,3759.38,11964.7,16751.96
1051854.4849,12125.16,5508.8,-4513.98,11599.97,27662.71,3952.89,12095.74,17046.26
1051854.4889,12143.52,5521.06,-4505.35,11618.38,27778.91,4325.01,12636.71,17483.67
1051854.4929,12166.55,5563.64,-4474.78,11627.68,27709.92,4105.14,12372.45,17513.09
1051854.4969,12184.34,5586.96,-4461.48,11616.61,27603.77,3747.51,11827.18,17129.95
1051854.5009,12114.29,5495.07,-4544.45,11549.05,27614.07,3828.34,11801.2,17729.48
1051854.5049,12103.13,5467.46,-4562.57,11563.59,27754.07,4244.28,12374.69,18261.24
1051854.5088,12105.13,5491.35,-4539.82,11579.9,27725.89,4136.61,12294.2,18237.64
1051854.5128,12095.07,5509.38,-4526.0,11573.51,27631.24,3770.07,11730.1,18247.03
1051854.5168,12066.79,5472.18,-4544.31,11576.94,27663.52,3820.61,11641.55,18893.43
1051854.5208,12026.22,5411.43,-4593.99,11559.15,27775.05,4210.19,12185.72,19465.35
1051854.5248,11990.26,5399.04,-4608.25,11535.5,27784.97,4232.69,12319.33,19702.01
1051854.5288,11955.64,5385.45,-4616.45,11501.36,27670.96,3862.67,11823.8,19604.3
1051854.5328,11950.45,5367.09,-4635.05,11484.82,27675.78,3822.71,11723.23,19719.75
1051854.5368,11890.37,5276.16,-4721.5,11431.08,27724.79,4130.32,12150.72,20161.82
1051854.5408,11874.77,5260.99,-4748.15,11401.42,27723.6,4220.77,12358.09,20567.23
1051854.5448,11908.77,5330.28,-4681.83,11443.57,27662.38,3893.04,11832.76,20603.61
1051854.5488,11886.88,5306.91,-4704.57,11416.77,27592.33,3717.28,11418.2,20937.83
1051854.5528,11827.23,5215.36,-4783.96,11377.53,27623.23,3964.81,11529.21,21737.34
1051854.5568,11823.94,5218.32,-4778.15,11391.26,27716.45,4198.12,11986.3,22006.75
1051854.5608,11831.67,5253.98,-4748.44,11385.35,27632.48,3882.93,11701.78,21398.45
1051854.5648,11845.69,5264.43,-4747.01,11370.18,27583.65,3672.74,11434.84,20570.85
1051854.5688,11793.04,5182.08,-4808.24,11339.81,27623.13,3876.26,11624.91,20363.48
1051854.5728,11742.88,5126.14,-4867.84,11296.85,27667.24,4113.63,12030.08,20406.58
1051854.5768,11789.18,5193.76,-4818.68,11318.11,27600.43,3842.45,11583.95,20820.57
1051854.5808,11806.2,5214.26,-4811.62,11301.33,27524.0,3553.01,11047.79,21433.17
1051854.5848,11774.49,5151.18,-4868.98,11260.32,27571.3,3698.11,11125.85,21026.33
1051854.5888,11734.01,5092.24,-4931.07,11216.98,27661.04,3999.04,11543.9,20516.11
1051854.5928,11739.97,5122.66,-4910.99,11223.37,27623.08,3840.97,11368.9,20440.53
1051854.5968,11752.65,5155.85,-4879.9,11238.62,27559.62,3541.42,10766.13,20195.11
1051854.6008,11717.75,5096.48,-4931.26,11209.54,27597.0,3635.79,10679.77,20847.9
1051854.6048,11658.96,5015.33,-4998.78,11175.97,27667.14,3959.75,11022.86,21656.23
1051854.6088,11655.81,5044.22,-4976.46,11186.6,27663.38,3904.44,11215.26,21135.52
1051854.6128,11638.31,5057.53,-4967.55,11173.01,27591.04,3591.82,11078.98,20381.98
1051854.6168,11612.13,5008.13,-5016.04,11133.62,27589.71,3616.76,11145.16,20463.04
1051854.6208,11622.1,4982.14,-5032.97,11146.21,27706.82,3991.56,11623.67,20565.18
1051854.6248,11621.76,4998.35,-5028.53,11137.92,27703.38,4033.76,11940.24,20311.83
1051854.6288,11635.69,5039.69,-5007.32,11123.71,27603.96,3721.67,11746.98,19973.19
1051854.6328,11636.31,5034.35,-5015.47,11117.41,27578.74,3675.84,11748.89,19984.63
1051854.6367,11654.19,5012.27,-5024.48,11149.98,27668.1,4002.86,12231.07,20088.87
1051854.6407,11643.36,5019.28,-5014.66,11155.8,27714.16,4150.2,12651.35,20015.67
1051854.6447,11638.36,5051.23,-4997.11,11130.24,27600.34,3836.01,12410.79,19836.48
1051854.6487,11625.96,5038.12,-5010.13,11106.64,27536.87,3677.37,12185.62,19480.85
1051854.6527,11627.1,4993.39,-5045.37,11109.59,27608.54,3936.72,12518.69,19475.84
1051854.6567,11630.68,4991.15,-5054.05,11109.26,27677.54,4153.06,13018.51,19466.35
1051854.6607,11654.38,5052.38,-5005.41,11131.19,27599.19,3880.5,12773.09,19126.51
1051854.6647,11698.72,5103.25,-4966.83,11153.13,27570.01,3705.93,12523.6,18881.37
1051854.6687,11655.05,5024.43,-5024.72,11118.46,27603.77,3876.35,12684.97,18916.99
1051854.6727,11640.74,5001.97,-5044.37,11110.21,27681.64,4133.94,13136.67,18928.1
1051854.6767,11656.57,5052.23,-5006.93,11118.94,27642.21,3928.09,12917.0,18569.57
1051854.6807,11658.67,5078.79,-4987.15,11116.55,27597.38,3688.19,12500.91,18091.97
1051854.6847,11641.65,5026.67,-5022.48,11108.92,27644.21,3831.29,12562.75,18135.84
1051854.6887,11655.57,5016.33,-5020.33,11140.44,27764.75,4191.83,13163.23,18424.89
1051854.6927,11670.69,5057.81,-4997.06,11142.59,27745.63,4093.41,13196.04,18293.67
1051854.6967,11641.55,5057.0,-5012.94,11091.38,27663.14,3817.42,12895.73,17961.55
1051854.7007,11622.86,5016.47,-5027.1,11093.38,27662.19,3870.96,12928.2,17977.72
1051854.7047,11592.2,4949.52,-5082.08,11068.35,27730.37,4163.89,13414.91,18096.83
1051854.7087,11612.56,4989.34,-5060.77,11073.21,27721.93,4132.08,13560.2,17997.22
1051854.7127,11677.12,5087.85,-4983.14,11116.46,27689.75,3897.86,13316.92,17733.24
1051854.7167,11660.1,5053.95,-5008.27,11102.92,27667.43,3869.2,13183.12,17544.94
1051854.7207,11624.19,4978.56,-5070.07,11074.64,27720.84,4151.11,13577.03,17648.99
1051854.7247,11634.26,5004.5,-5058.34,11077.41,27739.0,4217.91,13895.27,17670.78
1051854.7287,11691.52,5110.41,-4967.64,11136.34,27703.15,3993.18,13718.03,17489.01
1051854.7327,11702.49,5118.56,-4958.68,11142.4,27691.61,3937.72,13594.3,17376.95
1051854.7367,11682.32,5053.09,-5006.27,11128.38,27748.45,4188.01,13875.96,17442.13
1051854.7407,11676.12,5052.66,-5001.45,11135.48,27775.43,4314.28,14178.66,17319.16
1051854.7447,11695.77,5112.31,-4971.84,11121.8,27707.29,4063.56,13934.04,17082.26
1051854.7487,11714.94,5142.26,-4943.94,11143.35,27687.6,3944.16,13698.72,16954.57
1051854.7527,11696.86,5080.89,-4980.61,11140.06,27734.04,4144.96,13823.65,17016.32
1051854.7567,11682.32,5052.85,-5008.89,11119.03,27782.01,4331.21,14164.97,17039.92
1051854.7607,11704.49,5117.37,-4963.21,11133.58,27735.52,4115.06,13982.73,16824.1
1051854.7646,11718.7,5151.8,-4942.7,11138.2,27700.09,3938.63,13713.89,16648.87
1051854.7686,11701.49,5096.1,-4972.46,11143.73,27735.9,4083.78,13762.52,16683.58
1051854.7726,11681.75,5049.32,-5003.93,11137.87,27803.52,4319.72,14149.67,16755.15
1051854.7766,11713.98,5118.99,-4952.05,11157.28,27786.35,4186.58,14092.26,16616.11
1051854.7806,11732.25,5165.82,-4916.29,11174.78,27741.82,3982.35,13814.4,16438.3
1051854.7846,11721.28,5123.23,-4944.33,11165.95,27769.71,4075.15,13786.7,16472.58
1051854.7886,11679.46,5048.9,-5001.97,11132.05,27811.77,4312.8,14121.49,16543.53
1051854.7926,11686.71,5089.0,-4983.76,11130.33,27775.86,4212.76,14112.95,16367.15
1051854.7966,11709.12,5148.27,-4934.17,11152.32,27727.51,3987.93,13830.14,16144.47
1051854.8006,11702.92,5116.65,-4951.43,11157.66,27721.55,4001.43,13696.2,16123.73
1051854.8046,11696.58,5066.68,-4984.47,11155.99,27792.03,4257.92,13980.68,16246.61
1051854.8086,11703.3,5094.81,-4969.41,11146.5,27771.76,4222.2,14041.71,16137.08
1051854.8126,11759.76,5199.0,-4880.57,11202.48,27741.39,4016.73,13806.49,15953.59
1051854.8166,11795.76,5213.45,-4865.31,11230.76,27735.05,3993.94,13642.6,15921.88
1051854.8206,11817.93,5183.36,-4872.04,11251.69,27810.53,4245.47,13874.39,16057.64
1051854.8246,11799.29,5179.74,-4882.91,11233.0,27800.75,4273.61,14050.15,16008.67
1051854.8286,11826.71,5266.0,-4813.39,11267.85,27763.47,4050.78,13860.75,15801.67
1051854.8326,11849.02,5286.27,-4793.02,11284.07,27742.96,3975.96,13656.14,15722.9
1051854.8366,11852.17,5235.82,-4814.86,11296.42,27802.38,4176.28,13793.52,15835.24
1051854.8406,11837.48,5219.84,-4833.17,11272.24,27827.46,4287.96,14052.11,15849.02
1051854.8446,11901.19,5324.65,-4762.7,11303.66,27774.53,4079.2,13879.92,15658.09
1051854.8486,11957.79,5387.88,-4704.09,11355.97,27755.22,3970.05,13664.39,15573.6
1051854.8526,11945.2,5323.41,-4744.53,11343.77,27794.6,4120.78,13682.37,15662.53
1051854.8566,11938.0,5292.42,-4765.56,11325.93,27834.85,4290.63,13971.19,15699.72
1051854.8606,11952.45,5341.48,-4740.95,11314.11,27781.16,4094.51,13837.48,15508.61
1051854.8646,11972.48,5379.39,-4731.75,11289.31,27738.15,3934.15,13590.91,15392.59
1051854.8686,11953.07,5307.63,-4783.82,11260.18,27749.97,4023.41,13518.14,15448.14
1051854.8726,11930.13,5251.65,-4825.07,11247.02,27810.72,4236.98,13822.7,15545.08
1051854.8766,11914.54,5277.35,-4819.25,11225.32,27768.47,4098.94,13782.41,15414.53
1051854.8806,11918.83,5324.36,-4781.53,11243.58,27733.71,3925.9,13569.17,15291.03
1051854.8846,11905.72,5275.15,-4813.62,11239.24,27744.82,3978.21,13454.49,15342.0
1051854.8886,11872.58,5201.96,-4865.6,11219.07,27789.98,4193.93,13706.59,15469.27
1051854.8925,11857.65,5231.14,-4847.24,11222.03,27780.35,4125.4,13746.26,15373.99
1051854.8965,11871.67,5291.65,-4817.34,11213.26,27747.4,3943.11,13532.26,15249.73
1051854.9005,11848.59,5246.45,-4843.19,11209.2,27732.18,3934.1,13325.98,15263.7
1051854.9045,11800.58,5153.13,-4905.99,11186.55,27776.53,4138.9,13496.59,15382.67
1051854.9085,11797.33,5168.01,-4910.28,11168.82,27778.53,4136.52,13609.32,15327.5
1051854.9125,11822.03,5240.58,-4874.28,11169.01,27729.09,3934.1,13414.58,15144.87
1051854.9165,11839.49,5248.12,-4860.31,11190.8,27741.77,3916.17,13223.79,15149.5
1051854.9205,11807.49,5161.62,-4914.33,11179.02,27790.74,4096.46,13335.42,15275.96
1051854.9245,11714.36,5078.13,-5001.4,11083.6,27722.93,4083.44,13458.59,15203.53
1051854.9285,11740.59,5155.52,-4952.62,11090.33,27723.65,3924.32,13349.44,15072.73
1051854.9325,11758.04,5175.78,-4930.07,11107.73,27720.41,3862.1,13165.76,15039.73
1051854.9365,11742.88,5103.64,-4978.28,11101.34,27748.64,4013.78,13200.52,15141.58
1051854.9405,11730.67,5084.99,-4993.63,11100.91,27783.68,4135.04,13466.03,15182.26
1051854.9445,11752.27,5158.66,-4945.28,11114.5,27762.99,3987.22,13408.28,15053.94
1051854.9485,11775.16,5195.43,-4916.24,11121.8,27751.78,3895.57,13232.19,15013.27
1051854.9525,11717.65,5084.42,-4993.39,11084.56,27738.15,3971.39,13141.87,15070.73
1051854.9565,11721.04,5066.49,-5003.31,11091.71,27800.9,4153.63,13423.97,15155.32
1051854.9605,11736.39,5137.63,-4955.39,11102.01,27782.97,4033.47,13410.57,15035.3
1051854.9645,11753.94,5184.51,-4929.83,11103.68,27754.02,3902.63,13230.61,14939.21
1051854.9685,11719.04,5095.39,-4995.54,11069.06,27733.76,3947.93,13080.31,15000.96
1051854.9725,11694.48,5031.63,-5037.17,11053.04,27769.57,4103.33,13302.04,15066.1
1051854.9765,11698.96,5082.75,-4999.83,11059.86,27767.71,4025.22,13345.67,14975.36
1051854.9805,11726.29,5157.85,-4946.66,11081.17,27745.73,3885.17,13184.36,14884.38
1051854.9845,11722.85,5113.17,-4979.42,11074.83,27732.52,3894.38,13006.5,14921.38
1051854.9885,11703.68,5041.84,-5029.3,11055.66,27783.3,4088.4,13205.15,15045.5
1051854.9925,11726.19,5097.68,-4986.48,11078.88,27799.32,4058.5,13329.94,14967.44
1051854.9965,11743.02,5163.0,-4951.86,11074.93,27775.05,3898.29,13191.65,14848.85
1051855.0005,11719.85,5114.94,-4979.47,11065.58,27750.11,3879.12,12976.7,14870.93
1051855.0045,11700.87,5038.69,-5023.53,11061.1,27791.74,4045.3,13087.56,14978.12
1051855.0085,11703.83,5061.53,-5015.9,11056.14,27811.44,4074.96,13262.46,14941.12
1051855.0125,11718.94,5135.3,-4973.03,11061.67,27782.92,3929.76,13156.22,14814.33
1051855.0165,11720.37,5129.62,-4969.26,11077.02,27761.8,3885.6,12946.42,14770.37
1051855.0205,11693.91,5034.35,-5033.83,11055.42,27777.82,4009.77,12954.9,14782.0
1051855.0245,11695.91,5044.37,-5028.25,11060.81,27810.86,4090.45,13185.6,14846.9
1051855.0285,11725.24,5142.36,-4961.92,11082.94,27806.09,3963.61,13151.31,14799.5
1051855.0325,11723.81,5146.46,-4968.21,11069.11,27770.71,3872.97,12952.28,14761.26
1051855.0365,11733.96,5086.95,-4990.24,11085.89,27789.02,3990.13,12899.3,14865.69
1051855.0405,11694.48,5035.5,-5024.0,11058.28,27808.0,4086.88,13131.67,14891.48
1051855.0445,11684.85,5091.86,-5001.16,11040.64,27787.4,3957.7,13134.34,14774.37
1051855.0485,11715.6,5140.26,-4980.71,11046.6,27760.75,3862.14,12984.47,14723.45
1051855.0525,11685.94,5047.46,-5037.74,11033.3,27740.86,3908.78,12847.14,14783.91
1051855.0565,11674.21,5014.32,-5049.8,11032.49,27792.31,4066.42,13118.03,14879.66
1051855.0605,11690.19,5095.63,-4986.14,11059.19,27808.48,4009.25,13219.17,14824.11
1051855.0645,11726.48,5165.01,-4945.04,11074.69,27798.61,3922.51,13125.14,14772.46
1051855.0685,11710.45,5091.62,-4998.3,11055.14,27767.8,3936.01,12929.68,14815.67
1051855.0725,11708.45,5046.51,-5021.86,11061.38,27828.36,4122.16,13168.0,14931.01
1051855.0765,11719.61,5109.6,-4983.95,11068.68,27851.25,4099.66,13317.87,14877.75
1051855.0805,11714.84,5156.09,-4969.07,11046.94,27813.58,3955.41,13205.1,14773.99
1051855.0844,11693.19,5092.1,-5015.95,11028.05,27770.0,3924.51,12963.53,14789.77
1051855.0884,11706.21,5046.42,-5032.68,11047.65,27826.74,4101.42,13115.93,14917.8
1051855.0924,11742.31,5124.95,-4972.32,11085.46,27876.9,4140.38,13316.01,14918.52
1051855.0964,11750.41,5188.42,-4945.71,11072.26,27836.52,3998.42,13228.7,14803.13
1051855.1004,11706.88,5118.42,-5001.83,11030.96,27765.23,3919.98,12960.72,14758.4
1051855.1044,11686.99,5041.36,-5031.92,11049.8,27799.13,4056.55,13006.21,14839.89
1051855.1084,11705.54,5084.47,-4999.5,11067.68,27856.93,4127.5,13245.39,14841.03
1051855.1124,11711.46,5148.7,-4975.03,11042.79,27821.83,3996.37,13215.59,14718.2
1051855.1164,11726.91,5150.13,-4966.12,11053.66,27803.28,3949.17,13011.46,14715.82
1051855.1204,11694.96,5058.34,-5016.85,11047.27,27803.38,4046.06,12952.47,14803.98
1051855.1244,11696.82,5066.06,-5011.8,11057.66,27837.09,4134.32,13186.93,14833.6
1051855.1284,11714.51,5152.18,-4957.06,11059.57,27831.89,4037.57,13221.98,14741.28
1051855.1324,11733.2,5178.02,-4934.88,11075.64,27801.56,3948.83,13028.53,14688.88
1051855.1364,11734.49,5103.97,-4977.04,11086.04,27812.06,4028.18,12904.79,14789.92
1051855.1404,11712.36,5061.63,-5019.76,11042.79,27825.93,4122.83,13115.55,14823.96
1051855.1444,11741.4,5163.62,-4940.84,11077.98,27847.58,4073.57,13224.84,14768.41
1051855.1484,11742.07,5195.05,-4920.96,11087.37,27793.32,3959.37,13054.9,14696.08
1051855.1524,11721.8,5109.6,-4983.81,11054.71,27798.75,3978.21,12854.29,14761.97
1051855.1564,11705.69,5059.43,-5012.23,11043.26,27832.89,4097.99,13053.23,14826.59
1051855.1604,11720.8,5131.48,-4966.07,11057.9,27831.08,4046.39,13176.4,14765.22
1051855.1644,11709.83,5154.51,-4966.12,11041.21,27798.37,3927.8,13064.0,14695.07
1051855.1684,11717.18,5108.6,-4980.52,11058.9,27793.94,3933.38,12834.26,14760.88
1051855.1724,11699.39,5042.7,-5023.58,11049.56,27815.73,4058.41,12971.07,14851.67
1051855.1764,11699.63,5090.05,-5001.4,11037.4,27821.35,4039.14,13141.44,14805.84
1051855.1804,11721.09,5167.2,-4952.77,11052.66,27807.33,3928.85,13075.26,14721.44
1051855.1844,11724.57,5127.24,-4973.75,11058.28,27792.74,3909.06,12834.31,14758.02
1051855.1884,11708.31,5044.41,-5028.49,11036.68,27821.45,4032.52,12907.22,14856.77
1051855.1924,11709.83,5086.14,-5005.41,11035.25,27838.19,4051.35,13107.25,14815.86
1051855.1964,11718.7,5158.76,-4964.64,11045.7,27789.55,3927.37,13054.66,14713.96
1051855.2004,11717.61,5131.91,-4982.28,11039.35,27750.16,3870.06,12797.98,14714.29
1051855.2044,11700.58,5046.27,-5037.02,11020.47,27768.9,3976.3,12765.31,14814.43
1051855.2084,11709.07,5078.08,-5008.17,11047.79,27829.03,4061.08,13017.75,14832.69
1051855.2123,11732.48,5167.53,-4952.81,11064.24,27808.53,3956.7,13048.22,14728.31
1051855.2163,11750.27,5181.12,-4935.31,11088.9,27767.95,3875.11,12810.28,14708.57
1051855.2203,11709.83,5074.69,-4987.76,11096.96,27749.73,3928.61,12651.64,14784.0
1051855.2243,11682.51,5059.91,-4998.16,11095.57,27782.82,4016.54,12873.41,14786.67
1051855.2283,11708.45,5158.33,-4934.98,11128.14,27806.43,3956.84,12974.17,14705.85
1051855.2323,11696.67,5171.92,-4922.82,11140.16,27777.96,3878.45,12781.96,14678.67
1051855.2363,11674.93,5086.23,-4964.3,11145.83,27773.19,3921.22,12564.8,14759.69
1051855.2403,11683.18,5072.21,-4971.12,11164.09,27829.51,4058.98,12791.78,14843.32
1051855.2443,11688.66,5152.61,-4918.86,11191.85,27843.62,4019.21,12937.26,14791.16
1051855.2483,11632.11,5137.97,-4940.37,11160.57,27772.1,3885.94,12775.61,14690.59
1051855.2523,11671.74,5108.98,-4937.12,11208.25,27795.89,3937.15,12552.69,14801.22
1051855.2563,11633.68,5039.41,-4976.32,11201.34,27803.33,4033.52,12704.99,14851.86
1051855.2603,11591.82,5080.99,-4957.49,11186.74,27783.35,3990.27,12873.17,14773.85
1051855.2643,11611.99,5152.46,-4914.05,11210.4,27788.36,3928.85,12861.35,14722.97
1051855.2683,11587.76,5070.31,-4967.64,11189.27,27760.22,3903.48,12585.55,14768.75
1051855.2723,11574.51,5006.84,-4994.77,11196.76,27790.22,4036.33,12705.33,14878.61
1051855.2763,11609.51,5089.95,-4941.08,11220.89,27864.13,4070.19,12970.4,14864.16
1051855.2803,11583.14,5123.57,-4940.22,11196.61,27827.08,3970.05,12978.27,14756.16
1051855.2843,11602.36,5100.68,-4943.71,11217.07,27803.28,3935.34,12697.98,14780.0
1051855.2883,11574.7,5006.03,-5006.84,11184.03,27791.88,4021.07,12689.21,14854.34
1051855.2923,11598.11,5066.82,-4968.21,11202.15,27833.18,4076.53,12949.85,14864.35
1051855.2963,11607.98,5143.21,-4934.12,11194.75,27822.02,3984.26,12996.01,14772.89
1051855.3003,11592.82,5108.5,-4949.05,11193.23,27772.81,3907.68,12698.13,14754.49
1051855.3043,11578.51,5019.86,-4989.2,11198.24,27775.96,3987.22,12590.84,14855.91
1051855.3083,11573.79,5027.91,-4989.82,11190.84,27804.57,4044.34,12822.2,14855.58
1051855.3123,11616.61,5135.2,-4930.07,11210.87,27840.24,4002.0,12950.37,14801.93
1051855.3163,11568.6,5078.98,-4987.57,11158.85,27762.08,3877.78,12664.8,14723.21
1051855.3203,11557.15,4993.82,-5022.81,11171.01,27757.55,3931.28,12474.2,14805.99
1051855.3243,11577.27,5015.42,-4998.73,11192.32,27827.93,4054.12,12725.02,14872.84
1051855.3283,11580.71,5091.33,-4969.79,11174.73,27826.5,3972.96,12852.57,14766.84
1051855.3323,11592.01,5114.7,-4965.35,11165.24,27796.65,3891.37,12683.06,14730.12
1051855.3363,11586.52,5036.4,-4998.4,11172.82,27776.53,3905.01,12425.14,14803.55
1051855.3402,11567.88,4994.15,-5015.42,11170.53,27799.71,3997.04,12596.32,14856.1
1051855.3442,11591.58,5093.86,-4944.23,11204.58,27838.61,3990.84,12823.2,14817.86
1051855.3482,11582.76,5121.28,-4953.58,11169.86,27798.7,3900.05,12726.74,14755.06
1051855.3522,11601.97,5071.59,-4972.55,11183.93,27771.52,3895.71,12423.52,14807.27
1051855.3562,11550.86,4979.32,-5034.88,11152.41,27758.32,3965.04,12500.81,14839.89
1051855.3602,11556.2,5039.5,-5010.13,11143.88,27778.06,3947.78,12714.58,14777.33
1051855.3642,11598.97,5121.37,-4951.33,11169.39,27797.18,3898.14,12713.53,14744.66
1051855.3682,11569.93,5047.37,-4992.01,11157.32,27738.86,3844.88,12363.01,14758.25
1051855.3722,11577.27,4997.64,-5013.7,11168.67,27757.12,3938.25,12379.6,14827.06
1051855.3762,11588.62,5051.28,-4985.62,11170.44,27787.12,3943.21,12612.54,14790.44
1051855.3802,11620.52,5143.74,-4932.88,11191.32,27810.39,3892.14,12669.8,14748.1
1051855.3842,11596.01,5083.51,-4966.12,11176.87,27773.29,3821.18,12342.98,14756.73
1051855.3882,11550.19,4969.31,-5037.88,11144.45,27734.47,3859.09,12239.98,14798.17
1051855.3922,11557.53,5005.07,-5016.76,11147.12,27770.52,3901.53,12483.03,14786.44
1051855.3962,11589.58,5097.87,-4961.68,11168.2,27777.15,3829.24,12546.16,14719.96
1051855.4002,11609.51,5087.9,-4967.21,11171.68,27743.1,3760.77,12273.84,14720.73
1051855.4042,11557.1,4966.69,-5040.22,11143.11,27707.87,3784.75,12095.17,14768.98
1051855.4082,11566.45,4991.63,-5022.05,11155.85,27746.01,3842.31,12320.38,14773.9
1051855.4122,11637.83,5132.72,-4916.1,11223.22,27820.59,3827.14,12494.14,14755.63
1051855.4162,11576.8,5073.83,-4973.46,11161.38,27741.15,3708.08,12237.98,14690.64
1051855.4202,11541.94,4963.45,-5035.07,11144.78,27701.57,3717.71,12001.13,14737.85
1051855.4242,11593.58,5005.31,-4987.57,11199.62,27786.64,3852.56,12254.62,14814.76
1051855.4282,11627.1,5107.12,-4929.02,11219.07,27807.95,3805.45,12423.14,14741.14
1051855.4322,11596.35,5092.81,-4959.49,11180.35,27737.29,3682.33,12219.91,14648.77
1051855.4362,11574.32,4995.06,-5015.56,11160.99,27699.09,3668.69,11936.14,14675.67
1051855.4402,11536.03,4942.23,-5043.94,11152.03,27708.58,3749.8,12058.5,14713.48
1051855.4442,11552.76,5024.67,-5000.5,11162.85,27715.11,3699.54,12205.55,14638.47
1051855.4482,11557.29,5054.62,-4994.68,11151.41,27707.87,3598.83,12094.83,14567.62
1051855.4522,11548.43,4978.42,-5041.74,11124.56,27685.45,3600.26,11794.62,14634.66
1051855.4562,11540.32,4937.22,-5058.81,11129.91,27729.51,3722.57,11908.63,14723.49
1051855.4602,11568.26,5023.19,-5006.12,11153.51,27756.98,3707.27,12079.29,14678.15
1051855.4642,11554.96,5058.81,-4997.92,11140.54,27715.5,3596.26,11998.37,14583.73
1051855.4681,11551.62,5004.41,-5026.67,11144.21,27683.5,3577.09,11703.64,14617.73
1051855.4721,11533.02,4929.45,-5070.07,11125.8,27688.08,3673.7,11732.48,14679.67
1051855.4761,11543.61,4988.77,-5025.24,11147.45,27725.27,3668.83,11916.16,14638.43
1051855.4801,11565.07,5065.3,-4975.51,11166.76,27724.46,3589.92,11918.12,14575.1
1051855.4841,11564.35,5032.4,-4991.29,11166.29,27680.83,3552.06,11658.24,14579.39
1051855.4881,11543.42,4954.24,-5031.06,11161.61,27692.04,3668.64,11690.43,14660.74
1051855.4921,11569.69,5006.08,-4996.87,11181.79,27749.49,3727.2,11956.65,14664.46
1051855.4961,11587.05,5084.32,-4961.01,11181.59,27751.59,3653.96,12032.41,14591.17
1051855.5001,11558.44,5042.36,-4998.21,11154.08,27693.66,3601.74,11832.19,14572.57
1051855.5041,11551.29,4977.37,-5026.25,11156.42,27711.06,3732.06,11867.43,14676.86
1051855.5081,11568.12,5009.56,-4996.82,11179.69,27770.76,3839.49,12168.08,14727.69
1051855.5121,11614.99,5121.52,-4920.86,11223.03,27807.86,3790.05,12302.54,14677.67
1051855.5161,11568.26,5078.03,-4969.41,11171.06,27724.36,3684.71,12105.32,14604.47
1051855.5201,11589.81,5034.5,-4983.81,11189.61,27760.18,3813.93,12094.59,14725.78
1051855.5241,11556.72,5004.45,-5012.08,11161.38,27769.24,3901.96,12325.1,14746.0
1051855.5281,11540.32,5050.23,-5006.12,11126.81,27726.89,3780.75,12371.35,14620.35
1051855.5321,11556.91,5078.84,-4992.91,11129.43,27714.26,3719.71,12260.82,14600.85
1051855.5361,11546.66,5014.8,-5011.23,11145.78,27714.26,3804.11,12143.61,14691.78
1051855.5401,11549.43,4996.01,-5014.71,11154.94,27755.41,3935.72,12366.3,14754.06
1051855.5441,11569.93,5073.02,-4977.8,11144.78,27776.63,3877.54,12478.31,14684.63
1051855.5481,11596.78,5126.48,-4940.65,11172.01,27781.92,3802.11,12387.32,14644.43
1051855.5521,11588.05,5068.11,-4963.26,11186.74,27751.69,3837.3,12187.77,14705.33
1051855.5561,11581.23,5036.88,-4971.93,11199.95,27790.93,3990.32,12371.21,14794.02
1051855.5601,11576.65,5074.69,-4973.27,11167.24,27778.91,3909.92,12478.5,14695.46
1051855.5641,11598.4,5137.25,-4938.56,11180.59,27752.69,3809.4,12402.06,14623.88
1051855.5681,11571.36,5063.11,-4983.19,11154.99,27749.35,3799.01,12179.76,14651.59
1051855.5721,11559.87,5005.36,-5004.6,11162.95,27778.91,3947.74,12288.0,14757.16
1051855.5761,11593.25,5074.17,-4962.35,11182.17,27808.0,3949.02,12453.99,14733.51
1051855.5801,11590.72,5123.38,-4942.51,11173.58,27773.62,3826.67,12425.61,14627.22
1051855.5841,11571.12,5070.5,-4974.27,11150.98,27730.66,3786.37,12185.91,14644.1
1051855.5881,11592.77,5027.68,-4979.32,11179.4,27786.54,3953.31,12256.81,14779.24
1051855.5921,11572.12,5032.02,-4992.34,11155.32,27791.22,3936.39,12416.32,14713.0
1051855.596,11586.48,5103.3,-4963.88,11148.07,27774.38,3816.8,12423.9,14620.74
1051855.6,11604.69,5108.88,-4942.66,11186.31,27777.01,3797.25,12234.64,14651.54
1051855.604,11540.37,4983.0,-5033.45,11134.48,27731.23,3856.61,12150.24,14694.55
1051855.608,11533.74,4987.72,-5037.79,11120.51,27737.33,3907.73,12332.54,14697.36
1051855.612,11581.71,5098.96,-4959.92,11161.52,27762.46,3823.19,12389.9,14631.23
1051855.616,11593.06,5100.92,-4958.11,11164.09,27733.04,3750.37,12198.88,14606.38
1051855.62,11574.94,5012.7,-4999.97,11165.24,27730.23,3833.72,12109.57,14690.07
1051855.624,11558.96,4999.21,-5004.74,11158.52,27769.14,3939.01,12341.93,14734.94
1051855.628,11575.03,5074.64,-4972.03,11151.12,27752.12,3836.3,12418.32,14635.37
1051855.632,11593.39,5099.2,-4962.59,11150.03,27717.26,3733.78,12252.28,14578.15
1051855.636,11584.38,5029.35,-4994.39,11144.4,27728.18,3808.98,12123.97,14672.71
1051855.64,11552.14,4996.68,-5001.74,11158.42,27768.33,3924.37,12326.29,14725.97
1051855.644,11581.99,5078.46,-4964.3,11172.39,27778.53,3855.51,12447.88,14646.29
1051855.648,11598.78,5121.04,-4951.29,11159.71,27750.69,3768.35,12355.14,14600.42
1051855.652,11588.86,5052.95,-4981.47,11152.89,27732.57,3799.82,12175.13,14657.64
1051855.656,11608.55,5038.36,-4967.12,11193.71,27813.2,3970.48,12366.49,14771.99
1051855.66,11623.1,5109.45,-4922.82,11213.92,27833.42,3948.78,12526.32,14730.26
1051855.664,11581.18,5114.27,-4951.57,11157.18,27762.23,3797.58,12422.94,14610.1
1051855.668,11524.15,5015.76,-5027.77,11099.2,27696.57,3758.19,12162.83,14611.2
1051855.672,11514.14,4952.38,-5056.38,11091.33,27732.76,3890.47,12249.76,14698.55
1051855.676,11548.19,5018.28,-5016.71,11110.26,27774.58,3892.33,12418.46,14670.9
1051855.68,11603.83,5128.77,-4941.03,11159.95,27796.18,3831.96,12432.72,14634.9
1051855.684,11556.15,5051.61,-5000.73,11117.13,27725.99,3768.25,12172.03,14612.1
1051855.688,11563.49,4989.48,-5023.0,11136.34,27758.27,3890.8,12199.21,14697.46
1051855.692,11580.28,5042.51,-4980.37,11170.2,27788.26,3921.41,12395.05,14688.68
1051855.696,11571.27,5101.16,-4954.29,11155.89,27775.43,3807.59,12418.37,14598.09
1051855.7,11572.36,5091.91,-4955.48,11163.81,27752.31,3764.06,12224.48,14595.61
1051855.704,11598.11,5045.08,-4958.2,11199.43,27778.63,3893.76,12215.09,14703.08
1051855.708,11584.0,5037.83,-4976.99,11173.15,27779.73,3939.15,12421.51,14684.73
1051855.712,11606.5,5112.03,-4948.95,11171.68,27757.89,3823.33,12468.53,14583.68
1051855.716,11640.6,5152.46,-4917.34,11193.71,27759.79,3772.4,12334.59,14577.3
1051855.72,11594.44,5055.52,-4977.18,11157.7,27736.0,3837.87,12240.6,14630.37
1051855.7244,11584.33,5035.31,-4982.33,11147.45,27764.23,3943.16,12469.15,14674.47
1051855.7284,11612.42,5121.18,-4928.4,11177.06,27779.3,3866.82,12582.02,14597.42
1051855.7324,11626.29,5156.23,-4914.05,11187.36,27766.04,3787.57,12468.77,14560.03
1051855.7364,11601.07,5082.66,-4962.78,11157.32,27745.82,3839.87,12309.89,14633.13
1051855.7404,11608.41,5058.15,-4969.69,11161.19,27777.82,3960.8,12502.39,14696.74
1051855.7444,11655.95,5139.3,-4921.25,11181.79,27808.1,3923.56,12655.45,14647.77
1051855.7484,11672.21,5182.79,-4894.11,11197.52,27747.73,3800.82,12516.64,14557.79
1051855.7524,11628.06,5111.41,-4927.97,11192.47,27750.69,3821.14,12301.4,14618.06
1051855.7564,11579.8,5035.5,-4977.8,11157.8,27766.56,3934.19,12413.17,14676.1
1051855.7604,11591.34,5094.34,-4946.14,11162.71,27779.06,3889.08,12549.64,14614.01
1051855.7644,11626.72,5166.44,-4911.28,11174.82,27766.95,3790.86,12502.19,14549.83
1051855.7684,11632.3,5124.28,-4935.6,11173.25,27736.38,3778.12,12265.4,14580.16
1051855.7724,11650.04,5093.38,-4933.5,11208.01,27790.36,3950.31,12382.51,14704.94
1051855.7764,11638.31,5114.46,-4937.12,11187.46,27791.93,3931.33,12550.83,14653.59
1051855.7804,11638.36,5173.16,-4902.12,11196.42,27790.6,3832.91,12569.1,14583.02
1051855.7844,11635.21,5151.7,-4915.67,11184.6,27739.77,3785.18,12338.35,14583.16
1051855.7879,11619.38,5079.56,-4953.53,11172.34,27752.36,3906.92,12338.07,14680.34
1051855.7919,11594.73,5078.6,-4971.12,11149.31,27769.81,3905.87,12519.07,14635.47
1051855.7959,11620.28,5158.33,-4927.11,11162.47,27774.05,3818.46,12592.89,14565.28
1051855.7999,11629.3,5142.5,-4939.6,11149.69,27739.29,3757.72,12393.33,14552.07
1051855.8039,11609.6,5050.8,-4989.1,11131.24,27724.98,3841.35,12308.74,14627.55
1051855.8079,11618.42,5075.84,-4954.53,11166.43,27788.79,3940.3,12552.55,14678.58
1051855.8119,11640.55,5162.86,-4908.8,11181.4,27798.08,3851.46,12663.65,14602.38
1051855.8159,11629.96,5156.9,-4917.43,11178.78,27769.38,3760.39,12509.97,14563.37
1051855.8199,11607.31,5070.59,-4962.54,11167.0,27760.18,3827.67,12380.65,14641.33
1051855.8239,11604.6,5048.99,-4971.79,11159.56,27783.68,3925.23,12566.71,14682.44
1051855.8279,11611.18,5120.71,-4927.73,11169.48,27783.06,3835.2,12658.31,14594.89
1051855.8319,11628.34,5149.32,-4913.33,11178.78,27758.32,3736.64,12498.28,14543.2
1051855.8359,11623.43,5080.65,-4947.09,11180.21,27741.05,3773.98,12280.56,14613.01
1051855.8399,11599.02,5032.25,-4976.8,11168.67,27757.55,3875.26,12413.93,14664.99
1051855.8439,11600.92,5088.76,-4951.24,11166.24,27763.51,3798.06,12521.65,14582.92
1051855.8479,11622.95,5141.64,-4930.88,11166.91,27763.08,3701.26,12407.21,14533.19
1051855.8518,11634.4,5096.01,-4944.99,11177.26,27742.29,3718.42,12157.06,14579.77
1051855.8558,11618.42,5034.83,-4977.13,11174.87,27765.9,3838.73,12234.5,14640.14
1051855.8598,11590.15,5064.2,-4962.35,11164.33,27763.8,3786.61,12348.46,14568.52
1051855.8638,11599.64,5121.14,-4935.36,11158.94,27745.97,3678.85,12284.61,14484.84
1051855.8678,11610.22,5088.52,-4948.57,11167.19,27728.94,3668.21,12034.47,14515.4
1051855.8718,11600.11,5020.19,-4982.66,11165.57,27746.3,3786.33,12062.41,14593.56
1051855.8758,11601.35,5056.91,-4961.78,11170.91,27767.14,3780.41,12231.35,14550.88
1051855.8798,11620.43,5141.74,-4913.52,11186.65,27767.23,3692.06,12256.1,14483.64
1051855.8838,11625.34,5123.62,-4919.53,11194.33,27742.48,3660.87,12018.73,14501.05
1051855.8878,11583.38,5021.53,-4982.33,11166.34,27726.37,3745.7,11960.46,14566.71
1051855.8918,11584.62,5040.5,-4971.7,11170.1,27748.02,3771.26,12141.61,14546.25
1051855.8958,11627.1,5142.88,-4913.62,11195.8,27773.86,3704.45,12235.5,14497.85
1051855.8998,11623.77,5127.81,-4926.92,11189.56,27728.23,3634.21,12002.8,14481.07
1051855.9038,11607.31,5040.93,-4966.12,11180.69,27733.52,3731.39,11902.0,14567.0
1051855.9078,11605.79,5038.31,-4963.73,11182.17,27766.66,3810.93,12105.23,14591.65
1051855.9118,11625.77,5128.15,-4909.18,11204.63,27766.14,3722.33,12183.86,14505.1
1051855.9158,11625.72,5138.3,-4913.28,11198.62,27738.96,3634.88,12002.76,14469.15
1051855.9198,11612.37,5060.48,-4959.15,11187.7,27719.45,3701.54,11852.03,14546.4
1051855.9238,11613.18,5039.88,-4975.37,11172.06,27740.39,3798.53,12052.49,14576.25
1051855.9278,11621.14,5104.07,-4951.57,11158.85,27747.21,3716.14,12177.37,14493.75
1051855.9318,11663.39,5177.45,-4889.01,11206.44,27751.35,3664.3,12077.62,14491.75
1051855.9358,11673.93,5140.11,-4883.53,11247.3,27762.42,3746.84,11914.87,14595.8
1051855.9398,11584.95,5019.76,-4985.86,11162.71,27718.93,3775.74,12002.23,14564.33
1051855.9438,11609.56,5097.53,-4941.37,11174.01,27756.12,3748.61,12172.37,14519.55
1051855.9478,11624.15,5145.36,-4919.58,11175.06,27745.49,3660.97,12096.12,14473.82
1051855.9518,11622.43,5092.67,-4945.14,11181.31,27718.5,3666.78,11858.61,14516.31
1051855.9558,11616.76,5037.93,-4972.41,11181.31,27744.96,3795.91,11970.47,14598.75
1051855.9598,11637.31,5105.88,-4927.92,11194.8,27773.05,3786.56,12158.82,14564.18
1051855.9638,11651.14,5178.4,-4883.91,11212.64,27775.0,3704.55,12149.53,14507.87
1051855.9678,11637.02,5121.76,-4924.01,11196.38,27730.09,3672.79,11882.5,14517.83
1051855.9718,11626.39,5055.19,-4961.49,11185.41,27747.06,3795.05,11917.88,14594.99
1051855.9758,11623.34,5088.85,-4947.19,11178.64,27751.88,3795.53,12096.22,14555.17
1051855.9797,11640.41,5163.0,-4907.08,11194.66,27747.4,3704.98,12113.86,14483.31
1051855.9837,11628.3,5131.29,-4920.15,11202.38,27725.37,3663.49,11870.58,14489.7
1051855.9877,11606.65,5045.32,-4965.02,11189.27,27727.99,3761.2,11829.47,14565.52
1051855.9917,11614.13,5068.21,-4949.52,11191.13,27756.03,3803.59,12030.7,14557.17
1051855.9957,11642.41,5157.28,-4897.17,11205.39,27775.72,3737.97,12121.01,14500.1
1051855.9997,11636.35,5146.07,-4907.8,11202.67,27740.29,3669.79,11910.58,14482.55
1051856.0037,11599.73,5044.37,-4968.36,11180.45,27711.68,3726.82,11783.98,14539.91
1051856.0077,11606.36,5054.33,-4962.87,11184.36,27752.02,3815.99,12000.42,14569.19
1051856.0117,11634.11,5145.69,-4910.66,11194.75,27766.85,3749.66,12121.63,14501.19
1051856.0157,11652.18,5173.16,-4886.25,11219.84,27755.17,3683.09,11978.77,14482.98
1051856.0197,11629.54,5091.81,-4923.2,11221.6,27737.29,3735.4,11810.3,14547.97
1051856.0237,11596.35,5041.41,-4969.03,11179.69,27744.68,3819.37,11986.16,14569.95
1051856.0277,11616.52,5117.8,-4935.12,11180.21,27756.27,3751.47,12121.63,14493.66
1051856.0317,11627.91,5152.04,-4919.05,11183.5,27734.9,3654.62,11999.85,14439.78
1051856.0357,11625.34,5087.61,-4946.14,11187.32,27710.73,3687.81,11788.66,14498.76
1051856.0397,11613.7,5048.61,-4960.68,11189.32,27723.84,3807.4,11935.19,14563.9
1051856.0437,11669.06,5158.04,-4886.91,11229.85,27811.34,3807.45,12138.56,14551.59
1051856.0477,11638.64,5173.35,-4895.16,11200.1,27761.89,3670.84,12024.02,14452.79
1051856.0517,11617.85,5106.4,-4928.02,11196.66,27724.32,3666.31,11764.19,14486.51
1051856.0557,11576.84,5018.62,-4989.1,11153.99,27720.45,3762.1,11846.88,14535.71
1051856.0597,11592.82,5075.36,-4958.58,11156.56,27738.57,3729.96,12018.11,14474.25
1051856.0637,11608.55,5145.36,-4915.33,11168.62,27754.93,3651.95,12013.58,14427.52
1051856.0677,11610.89,5107.78,-4934.98,11171.49,27738.48,3648.23,11785.17,14465.19
1051856.0717,11603.55,5039.12,-4973.32,11163.81,27733.04,3751.47,11809.16,14534.38
1051856.0757,11625.82,5085.71,-4949.9,11159.99,27744.92,3743.55,12002.04,14490.94
1051856.0797,11659.34,5172.59,-4898.17,11176.21,27757.7,3664.68,12045.91,14437.15
1051856.0837,11654.33,5146.5,-4911.9,11172.2,27727.32,3624.68,11834.43,14443.4
1051856.0877,11628.68,5055.38,-4974.41,11141.11,27711.97,3712.8,11788.32,14511.49
1051856.0917,11631.87,5075.17,-4963.49,11145.31,27751.4,3763.2,12013.68,14514.88
1051856.0957,11659.34,5161.48,-4914.67,11158.37,27752.12,3663.92,12092.59,14434.15
1051856.0997,11659.0,5157.14,-4914.67,11162.33,27718.69,3606.99,11910.2,14424.8
1051856.1037,11636.21,5069.45,-4963.92,11149.12,27718.64,3700.3,11823.94,14516.74
1051856.1077,11641.41,5072.69,-4963.26,11146.4,27762.7,3792.0,12045.29,14551.93
1051856.1117,11649.47,5145.5,-4928.92,11142.78,27752.55,3692.77,12141.61,14458.42
1051856.1157,11660.05,5169.39,-4915.29,11155.03,27729.23,3614.28,11988.83,14424.47
1051856.1197,11647.61,5088.85,-4963.21,11140.01,27712.63,3669.88,11825.04,14498.43
1051856.1237,11672.07,5092.53,-4944.52,11172.96,27780.92,3810.98,12062.46,14585.54
1051856.1277,11648.08,5131.63,-4936.84,11146.98,27754.07,3706.41,12160.21,14481.4
1051856.1317,11655.38,5165.1,-4918.05,11148.74,27714.64,3606.7,12023.69,14427.28
1051856.1357,11670.73,5125.43,-4919.72,11185.6,27729.85,3674.65,11852.69,14518.31
1051856.1397,11666.16,5084.75,-4946.66,11167.72,27764.28,3810.36,12021.97,14602.42
1051856.1437,11638.83,5107.55,-4955.44,11127.28,27734.43,3701.5,12107.33,14488.03
1051856.1477,11654.57,5166.05,-4917.81,11152.7,27733.81,3597.16,12030.41,14429.24
1051856.1517,11647.13,5116.03,-4940.94,11152.55,27702.1,3610.75,11802.34,14480.31
1051856.1557,11627.39,5050.95,-4979.28,11139.16,27721.98,3736.64,11915.97,14548.16
1051856.1597,11661.91,5125.05,-4928.26,11161.52,27761.03,3731.82,12102.94,14524.6
1051856.1637,11643.74,5153.32,-4926.06,11135.87,27717.45,3594.69,12035.23,14429.09
1051856.1677,11634.4,5110.5,-4949.05,11134.91,27682.45,3579.95,11797.33,14455.27
1051856.1716,11630.01,5049.66,-4973.17,11141.4,27714.11,3720.71,11861.28,14550.69
1051856.1756,11645.84,5092.48,-4945.23,11152.32,27750.69,3732.82,12056.16,14528.94
1051856.1796,11660.62,5166.58,-4910.95,11150.98,27746.59,3636.89,12086.68,14453.79
1051856.1836,11663.63,5149.46,-4916.24,11153.6,27721.89,3608.99,11881.64,14472.68
1051856.1876,11635.83,5060.24,-4959.15,11149.98,27723.79,3727.67,11873.15,14555.22
1051856.1916,11641.93,5076.46,-4953.43,11146.12,27752.69,3767.92,12079.86,14550.12
1051856.1956,11651.71,5148.55,-4924.25,11139.63,27739.81,3657.63,12136.37,14455.22
1051856.1996,11652.52,5144.69,-4924.73,11142.45,27704.19,3587.58,11938.57,14432.72
1051856.2036,11630.92,5061.44,-4964.4,11140.3,27707.06,3691.67,11870.19,14524.51
1051856.2076,11634.26,5063.01,-4961.87,11148.02,27741.34,3778.84,12086.87,14549.83
1051856.2116,11667.92,5158.47,-4905.32,11169.34,27762.08,3714.56,12217.28,14490.32
1051856.2156,11667.06,5166.48,-4909.66,11158.94,27728.13,3628.3,12063.31,14453.46
1051856.2196,11653.09,5089.57,-4950.71,11154.65,27711.78,3696.2,11933.85,14519.93
1051856.2236,11649.61,5081.46,-4949.43,11159.28,27752.78,3826.24,12159.3,14581.97
1051856.2276,11666.54,5156.23,-4913.19,11156.27,27760.22,3766.54,12301.16,14529.04
1051856.2316,11675.36,5193.62,-4888.68,11171.1,27740.86,3675.18,12196.45,14482.93
1051856.2356,11670.16,5136.3,-4912.28,11174.35,27739.29,3731.68,12058.21,14550.21
1051856.2396,11614.66,5045.94,-4983.14,11116.79,27715.59,3821.09,12194.21,14580.3
1051856.2436,11648.18,5135.25,-4922.34,11152.55,27745.92,3790.9,12373.31,14534.57
1051856.2476,11675.84,5203.44,-4883.48,11168.43,27747.97,3698.68,12307.69,14487.22
1051856.2516,11673.98,5153.75,-4902.08,11183.17,27736.33,3724.48,12123.06,14537.38
1051856.2556,11639.41,5069.49,-4958.44,11156.94,27767.38,3850.89,12244.51,14610.15
1051856.2596,11654.24,5127.48,-4934.12,11144.21,27785.35,3828.96,12426.33,14565.47
1051856.2636,11670.5,5193.14,-4902.32,11146.83,27740.48,3693.82,12343.41,14466.62
1051856.2676,11653.76,5143.6,-4927.68,11140.01,27707.53,3670.65,12108.04,14480.54
1051856.2716,11633.59,5064.58,-4967.98,11131.81,27712.59,3785.42,12138.37,14562.51
1051856.2756,11660.01,5124.9,-4916.95,11166.96,27754.98,3820.32,12339.07,14564.37
1051856.2796,11655.57,5181.5,-4898.21,11154.08,27740.53,3700.54,12340.83,14475.4
1051856.2836,11648.94,5157.19,-4915.19,11146.64,27712.11,3651.76,12123.49,14470.2
1051856.2876,11637.07,5080.41,-4948.57,11148.31,27717.59,3752.99,12081.77,14552.83
1051856.2916,11662.77,5117.94,-4919.2,11173.01,27760.94,3817.75,12289.24,14570.14
1051856.2956,11674.17,5187.42,-4886.34,11175.63,27733.71,3707.74,12315.23,14475.49
1051856.2995,11720.47,5230.95,-4846.38,11215.12,27749.83,3678.61,12164.02,14489.22
1051856.3035,11682.27,5130.58,-4904.89,11193.52,27744.96,3740.45,12046.53,14547.78
1051856.3075,11641.46,5088.04,-4940.32,11159.09,27743.15,3792.38,12210.23,14546.3
1051856.3115,11640.03,5149.46,-4909.23,11153.27,27727.51,3687.1,12266.07,14447.83
1051856.3155,11660.53,5179.36,-4894.11,11156.99,27705.1,3611.42,12112.14,14416.98
1051856.3195,11655.43,5112.41,-4923.82,11168.53,27703.81,3678.51,11958.65,14499.09
1051856.3235,11646.51,5080.56,-4939.27,11173.92,27729.18,3782.18,12128.35,14545.68
1051856.3275,11667.4,5156.52,-4898.74,11180.31,27733.47,3701.83,12225.63,14462.66
1051856.3315,11687.85,5207.97,-4874.8,11175.11,27719.69,3618.96,12123.54,14425.66
1051856.3355,11681.46,5151.42,-4896.5,11183.02,27705.72,3652.62,11917.02,14490.08
1051856.3395,11663.53,5094.29,-4928.16,11176.97,27735.9,3781.22,12073.66,14562.8
1051856.3435,11652.66,5132.82,-4918.48,11163.81,27732.57,3711.8,12187.58,14482.07
1051856.3475,11673.59,5204.11,-4869.32,11185.46,27712.4,3609.99,12098.79,14425.42
1051856.3515,11659.1,5132.82,-4909.33,11177.54,27672.29,3590.58,11847.55,14442.64
1051856.3555,11699.44,5122.66,-4888.68,11232.85,27755.65,3775.93,12003.33,14575.72
1051856.3595,11647.65,5119.94,-4914.28,11183.45,27723.6,3712.23,12110.76,14495.18
1051856.3635,11652.42,5177.93,-4893.16,11169.34,27693.32,3585.43,12055.92,14406.25
1051856.3675,11670.97,5165.24,-4876.66,11209.63,27687.46,3582.48,11847.45,14446.88
1051856.3715,11651.66,5086.37,-4923.15,11193.56,27702.1,3710.18,11895.04,14537.38
1051856.3755,11651.99,5113.55,-4912.33,11186.98,27719.17,3724.15,12067.03,14515.59
1051856.3795,11681.8,5198.53,-4864.36,11204.63,27714.68,3622.58,12076.19,14432.81
1051856.3835,11692.95,5189.85,-4865.93,11211.78,27694.51,3582.14,11869.38,14440.01
1051856.3875,11655.48,5091.95,-4924.73,11184.36,27685.45,3673.89,11838.06,14510.39
1051856.3915,11667.68,5117.46,-4901.7,11198.71,27709.82,3732.11,12036.85,14525.75
1051856.3955,11674.55,5187.18,-4867.17,11201.43,27707.39,3626.49,12082.44,14441.87
1051856.3995,11660.43,5168.58,-4890.11,11182.6,27673.87,3546.86,11894.85,14415.12
1051856.4035,11657.43,5099.01,-4918.77,11191.42,27679.11,3634.69,11814.69,14502.05
1051856.4075,11664.11,5097.96,-4913.86,11198.28,27713.21,3728.77,12016.54,14550.26
1051856.4115,11678.89,5177.31,-4870.42,11210.25,27714.21,3640.03,12102.41,14464.28
1051856.4155,11687.95,5202.82,-4862.02,11208.2,27676.3,3552.01,11945.15,14421.23
1051856.4195,11671.59,5126.19,-4897.69,11209.06,27668.29,3600.6,11788.08,14486.89
1051856.4235,11664.01,5097.44,-4908.13,11212.49,27711.78,3711.94,11968.61,14545.87
1051856.4274,11696.44,5183.03,-4858.69,11220.36,27727.8,3659.39,12104.99,14485.74
1051856.4314,11728.24,5248.55,-4810.19,11254.26,27718.07,3582.38,12013.53,14447.88
1051856.4354,11708.64,5175.5,-4848.53,11248.83,27684.36,3597.88,11807.01,14491.42
1051856.4394,11675.5,5104.16,-4899.5,11218.12,27678.16,3687.38,11921.93,14523.6
1051856.4434,11706.26,5195.0,-4827.79,11263.8,27711.78,3670.41,12089.16,14487.55
1051856.4474,11709.64,5237.82,-4819.68,11245.92,27698.57,3570.6,12024.26,14425.61
1051856.4514,11701.78,5185.08,-4854.2,11224.56,27682.36,3580.33,11817.6,14468.24
1051856.4554,11700.35,5128.1,-4879.19,11227.8,27715.92,3720.09,11929.51,14559.03
1051856.4594,11773.11,5232.0,-4799.37,11294.32,27778.77,3752.04,12146.71,14559.18
1051856.4634,11735.87,5250.93,-4804.9,11270.05,27708.72,3596.64,12063.08,14432.34
1051856.4674,11693.43,5191.76,-4839.23,11249.88,27650.03,3545.38,11820.51,14421.08
1051856.4714,11681.13,5121.09,-4886.48,11226.27,27668.91,3665.16,11856.46,14510.68
1051856.4754,11707.12,5174.83,-4846.76,11243.25,27698.95,3693.58,12048.1,14497.52
1051856.4794,11724.9,5257.42,-4785.11,11273.29,27700.33,3597.88,12073.9,14423.28
1051856.4834,11746.36,5258.47,-4774.62,11294.75,27682.88,3557.21,11879.78,14426.33
1051856.4874,11798.67,5237.48,-4774.43,11330.03,27692.27,3668.36,11840.73,14514.73
1051856.4914,11850.69,5293.56,-4728.75,11359.65,27725.84,3732.97,12042.52,14530.28
1051856.4954,11899.52,5403.81,-4647.54,11400.99,27744.15,3657.01,12131.22,14462.14
1051856.4994,11908.1,5414.82,-4638.29,11405.61,27701.52,3579.66,11939.96,14431.57
1051856.5034,11899.14,5337.62,-4683.73,11386.73,27677.54,3640.22,11815.22,14493.04
1051856.5074,11937.57,5362.8,-4656.84,11408.66,27733.62,3749.56,12044.43,14550.59
1051856.5114,11997.84,5481.34,-4575.92,11449.34,27757.41,3689.67,12165.83,14496.81
1051856.5154,11991.93,5490.4,-4583.6,11426.78,27705.58,3583.81,12006.14,14430.24
1051856.5194,11952.02,5387.74,-4647.64,11396.22,27664.09,3601.5,11816.88,14469.82
1051856.5234,11988.78,5395.65,-4628.47,11426.26,27711.78,3734.54,12022.31,14547.21
1051856.5274,12027.93,5482.01,-4589.75,11416.58,27737.19,3681.61,12164.26,14487.65
1051856.5314,12030.84,5511.14,-4585.79,11392.59,27713.49,3585.48,12076.28,14423.75
1051856.5354,12066.27,5492.26,-4568.34,11436.51,27739.1,3658.58,11927.65,14521.08
1051856.5394,12027.36,5415.44,-4625.65,11393.5,27741.58,3769.21,12066.37,14571.24
1051856.5434,12033.65,5467.18,-4610.97,11367.37,27737.81,3716.37,12207.65,14496.47
1051856.5474,12051.11,5522.87,-4591.42,11355.35,27704.91,3605.18,12145.23,14423.04
1051856.5514,12055.68,5483.01,-4615.16,11350.49,27676.25,3607.32,11938.29,14461.66
1051856.5553,12061.69,5433.37,-4634.48,11354.97,27710.15,3756.67,12051.77,14560.08
1051856.5593,12079.76,5481.72,-4612.68,11345.82,27725.75,3746.8,12230.92,14516.16
1051856.5633,12133.17,5578.52,-4554.13,11370.37,27723.84,3655.2,12238.46,14450.27
1051856.5673,12141.75,5554.72,-4562.66,11371.57,27694.28,3636.27,12031.94,14477.64
1051856.5713,12117.53,5467.94,-4618.36,11341.95,27690.89,3738.07,12054.21,14543.82
1051856.5753,12134.46,5505.47,-4600.57,11340.09,27731.85,3780.51,12276.32,14541.15
1051856.5793,12142.66,5573.8,-4563.19,11341.57,27726.84,3689.67,12315.8,14465.19
1051856.5833,12148.62,5564.26,-4566.1,11343.53,27703.72,3650.14,12116.15,14467.86
1051856.5873,12162.16,5511.71,-4587.6,11359.12,27748.06,3790.67,12111.57,14593.03
1051856.5913,12146.9,5497.27,-4612.73,11322.17,27757.31,3835.82,12301.11,14595.32
1051856.5953,12135.13,5540.04,-4613.3,11275.15,27718.36,3685.57,12316.61,14459.13
1051856.5993,12165.55,5567.69,-4587.98,11297.51,27707.53,3614.43,12146.95,14442.25
1051856.6033,12164.78,5498.08,-4617.74,11300.37,27712.73,3704.36,12041.76,14540.15
1051856.6073,12173.32,5494.02,-4620.89,11297.66,27759.41,3817.99,12251.66,14598.8
1051856.6113,12135.6,5515.81,-4636.38,11249.5,27713.97,3686.91,12278.03,14471.96
1051856.6153,12150.34,5547.19,-4618.84,11258.08,27695.13,3605.8,12120.87,14443.78
1051856.6193,12152.43,5488.35,-4634.43,11280.11,27682.26,3651.91,11947.39,14519.98
1051856.6233,12170.36,5474.23,-4627.94,11306.1,27716.59,3760.77,12121.25,14584.59
1051856.6273,12157.82,5511.43,-4628.18,11268.52,27699.71,3666.31,12190.3,14485.36
1051856.6313,12160.87,5547.19,-4610.16,11268.43,27687.03,3574.32,12086.25,14435.39
1051856.6353,12124.59,5455.35,-4670.57,11235.86,27642.73,3565.31,11855.51,14469.24
1051856.6393,12161.92,5447.15,-4663.47,11249.69,27722.31,3733.11,12038.57,14599.42
1051856.6433,12112.0,5449.15,-4679.82,11210.73,27694.99,3649.14,12128.88,14505.86
1051856.6473,12126.78,5504.08,-4656.08,11218.02,27669.43,3532.84,12051.54,14424.95
1051856.6513,12147.57,5481.29,-4661.42,11233.76,27650.79,3531.89,11837.91,14459.42
1051856.6553,12116.72,5397.89,-4717.88,11203.34,27651.93,3644.32,11916.02,14530.57
1051856.6593,12143.9,5458.36,-4670.19,11230.85,27696.57,3660.3,12108.14,14528.13
1051856.6633,12169.17,5540.99,-4618.07,11249.97,27701.48,3565.84,12085.73,14459.75
1051856.6673,12171.41,5517.39,-4628.18,11252.45,27674.58,3539.23,11872.58,14474.25
1051856.6713,12143.52,5431.18,-4673.96,11239.43,27676.54,3658.34,11904.34,14562.89
1051856.6753,12167.41,5473.19,-4653.41,11242.77,27694.51,3689.19,12085.49,14551.83
1051856.6793,12211.13,5574.75,-4593.33,11263.51,27730.75,3605.56,12108.66,14491.99
1051856.6832,12190.63,5544.71,-4615.36,11251.21,27692.66,3545.24,11893.46,14478.26
1051856.6872,12153.82,5443.14,-4684.07,11224.41,27662.47,3623.96,11843.97,14543.15
1051856.6912,12132.03,5429.41,-4701.47,11196.04,27681.69,3666.69,12026.74,14540.91
1051856.6952,12141.18,5498.12,-4664.85,11201.76,27685.45,3556.01,12048.15,14450.22
1051856.6992,12143.28,5502.08,-4662.85,11207.39,27643.11,3475.24,11850.45,14425.37
1051856.7032,12141.18,5438.47,-4689.74,11214.54,27651.89,3579.19,11776.35,14540.53
1051856.7072,12128.55,5414.72,-4709.82,11195.23,27681.5,3668.21,11975.19,14576.53
1051856.7112,12138.75,5489.87,-4663.04,11206.44,27682.93,3577.28,12038.61,14487.94
1051856.7152,12126.59,5500.75,-4656.22,11209.82,27654.13,3488.83,11882.64,14448.69
1051856.7192,12122.11,5434.47,-4689.03,11214.93,27648.5,3544.04,11742.16,14524.13
1051856.7232,12125.3,5412.1,-4694.75,11224.89,27682.36,3663.59,11928.37,14591.6
1051856.7272,12136.08,5479.67,-4658.08,11229.71,27695.47,3598.5,12012.48,14527.51
1051856.7312,12180.62,5554.44,-4611.54,11253.69,27710.15,3532.93,11928.04,14505.2
1051856.7352,12149.0,5474.43,-4657.98,11237.43,27655.65,3521.01,11711.88,14521.51
1051856.7392,12128.26,5411.39,-4697.08,11227.04,27679.35,3649.81,11864.23,14599.61
1051856.7432,12109.28,5437.57,-4699.76,11197.95,27677.25,3585.77,11956.31,14530.23
1051856.7472,12139.94,5512.1,-4647.92,11226.56,27673.87,3494.79,11891.27,14478.11
1051856.7512,12179.76,5510.95,-4625.75,11268.71,27678.54,3522.16,11719.56,14546.63
1051856.7552,12161.88,5444.0,-4656.74,11272.43,27711.39,3655.58,11846.35,14640.95
1051856.7592,12067.46,5385.26,-4737.19,11169.96,27625.13,3548.91,11895.37,14509.68
1051856.7632,12141.99,5510.86,-4645.87,11227.37,27677.01,3486.35,11884.17,14485.74
1051856.7672,12128.88,5474.28,-4667.9,11215.93,27650.5,3457.21,11678.55,14499.28
1051856.7712,12099.6,5389.64,-4713.11,11207.92,27658.89,3592.01,11744.55,14588.93
1051856.7752,12119.49,5433.94,-4677.34,11230.18,27709.54,3653.72,11959.27,14603.85
1051856.7792,12088.92,5459.4,-4689.55,11185.08,27659.23,3498.03,11869.81,14478.49
1051856.7832,12092.16,5450.87,-4694.37,11188.51,27648.74,3456.74,11685.04,14477.16
1051856.7872,12084.39,5381.25,-4721.45,11199.9,27671.15,3585.01,11707.21,14577.82
1051856.7912,12095.93,5398.18,-4702.14,11218.5,27718.79,3667.93,11922.89,14610.82
1051856.7952,12152.63,5517.67,-4618.17,11265.23,27752.83,3600.07,11963.99,14563.61
1051856.7992,12133.98,5505.04,-4633.86,11243.87,27697.38,3503.51,11761.48,14513.92
1051856.8032,12100.27,5415.06,-4687.21,11225.56,27675.06,3571.27,11688.62,14576.53
1051856.8072,12080.38,5384.45,-4710.05,11213.69,27682.02,3653.91,11882.02,14600.42
1051856.8111,12108.28,5470.66,-4655.93,11233.76,27695.28,3571.37,11922.65,14533.24
1051856.8151,12118.44,5505.99,-4628.23,11249.35,27675.3,3487.92,11766.1,14501.29
1051856.8191,12133.74,5458.69,-4648.16,11261.08,27685.41,3563.83,11672.69,14593.03
1051856.8231,12096.6,5391.65,-4704.0,11224.75,27686.41,3651.29,11849.88,14621.45
1051856.8271,12113.38,5460.69,-4668.52,11231.33,27684.88,3572.42,11899.57,14542.92
1051856.8311,12126.83,5512.95,-4632.04,11251.21,27667.91,3471.71,11758.14,14487.36
1051856.8351,12154.49,5490.54,-4620.93,11289.74,27709.77,3546.05,11648.7,14584.35
1051856.8391,12053.16,5347.78,-4744.96,11181.07,27658.66,3612.52,11751.75,14593.7
1051856.8431,12054.4,5397.8,-4724.22,11171.96,27654.84,3554.25,11824.13,14516.59
1051856.8471,12111.47,5498.31,-4656.46,11215.64,27676.78,3481.2,11743.98,14483.84
1051856.8511,12089.35,5442.52,-4680.68,11217.26,27669.96,3494.31,11571.31,14522.6
1051856.8551,12044.43,5346.39,-4743.77,11185.17,27678.4,3617.95,11685.94,14593.6
1051856.8591,12091.07,5421.69,-4688.26,11215.74,27722.36,3636.89,11846.83,14586.5
1051856.8631,12086.54,5472.85,-4664.95,11212.78,27690.08,3497.98,11744.5,14485.12
1051856.8671,12104.27,5460.45,-4667.09,11224.84,27671.77,3478.62,11551.33,14502.48
1051856.8711,12075.95,5373.86,-4719.69,11202.0,27678.68,3597.4,11614.09,14590.41
1051856.8751,12086.58,5408.43,-4691.6,11221.41,27713.21,3634.02,11801.39,14597.18
1051856.8791,12124.92,5502.61,-4633.0,11246.01,27711.82,3517.58,11756.9,14519.26
1051856.8831,12163.21,5530.07,-4604.24,11274.48,27708.53,3490.26,11588.48,14539.29
1051856.8871,12094.07,5402.95,-4687.83,11228.42,27673.25,3565.84,11565.07,14589.84
1051856.8911,12103.46,5416.39,-4678.44,11235.52,27710.63,3646.28,11777.45,14620.26
1051856.8951,12101.32,5467.8,-4671.72,11202.91,27662.23,3489.73,11719.28,14489.65
1051856.8991,12140.28,5512.14,-4636.43,11233.19,27666.29,3442.24,11568.55,14494.37
1051856.9031,12102.56,5415.58,-4693.08,11215.59,27653.13,3524.59,11511.23,14565.76
1051856.9071,12098.12,5396.03,-4706.96,11207.49,27677.11,3628.4,11718.7,14606.05
1051856.9111,12115.72,5470.94,-4669.86,11210.44,27692.61,3535.32,11744.79,14525.94
1051856.9151,12175.51,5556.58,-4597.43,11271.86,27742.82,3514.62,11653.71,14548.45
1051856.9191,12063.31,5388.64,-4727.51,11173.68,27646.78,3491.21,11463.45,14531.71
1051856.9231,12050.44,5343.63,-4751.97,11169.67,27666.57,3607.66,11664.25,14588.93
1051856.9271,12082.29,5428.65,-4694.46,11197.43,27692.56,3550.67,11735.3,14540.96
1051856.9311,12085.92,5472.76,-4667.76,11205.01,27680.11,3451.87,11615.47,14489.08
1051856.9351,12045.24,5392.46,-4709.15,11194.61,27644.78,3466.27,11448.0,14521.41
1051856.9391,12076.67,5376.39,-4701.33,11230.76,27695.33,3629.73,11650.85,14626.79
1051856.9431,12116.58,5458.26,-4649.12,11250.07,27712.54,3585.01,11747.55,14580.11
1051856.9471,12082.67,5479.38,-4648.78,11218.98,27654.98,3440.76,11628.58,14471.72
1051856.9511,12076.52,5436.71,-4667.71,11220.03,27629.38,3439.19,11437.18,14503.29
1051856.9551,12086.97,5391.17,-4691.17,11226.08,27674.63,3603.6,11595.06,14613.3
1051856.9591,12093.93,5428.93,-4673.43,11225.42,27681.16,3587.63,11714.98,14574.24
1051856.9631,12130.64,5520.11,-4612.83,11255.46,27682.16,3491.31,11674.21,14507.25
1051856.9671,12134.7,5499.51,-4621.08,11262.94,27658.28,3468.75,11473.18,14522.98
1051856.9711,12107.47,5413.06,-4676.01,11240.15,27671.01,3608.42,11551.81,14620.12
1051856.9751,12078.1,5402.99,-4696.85,11206.77,27671.77,3622.82,11714.36,14590.31
1051856.9791,12107.47,5492.12,-4637.43,11230.99,27685.45,3513.19,11689.19,14519.36
1051856.9831,12082.24,5458.64,-4665.23,11210.54,27635.63,3430.65,11474.94,14486.93
1051856.9871,12055.45,5370.76,-4715.35,11195.23,27638.39,3538.28,11486.05,14570.76
1051856.9911,12031.84,5351.97,-4735.9,11172.96,27662.61,3603.84,11691.57,14583.78
1051856.9951,12055.45,5438.61,-4686.17,11186.12,27668.67,3497.12,11696.24,14504.72
1051856.9991,12068.7,5460.5,-4671.43,11200.43,27648.88,3426.31,11526.68,14482.79
1051857.003,12054.02,5386.97,-4708.58,11202.96,27654.46,3523.4,11477.85,14571.86
1051857.007,12033.65,5356.22,-4726.08,11199.62,27695.61,3638.36,11715.13,14631.13
1051857.011,12048.25,5432.13,-4678.63,11215.26,27702.0,3545.9,11762.24,14555.36
1051857.015,12046.05,5449.96,-4682.4,11196.76,27658.32,3430.41,11596.01,14493.51
1051857.019,12046.86,5399.28,-4700.66,11213.11,27672.29,3507.61,11503.98,14588.69
1051857.023,12015.53,5342.39,-4736.47,11195.42,27691.61,3623.96,11697.01,14649.44
1051857.027,12022.69,5393.41,-4725.27,11171.01,27670.34,3529.55,11748.55,14554.22
1051857.031,12039.23,5444.0,-4700.76,11178.21,27655.99,3433.7,11644.65,14506.44
1051857.035,12029.36,5399.56,-4714.73,11187.65,27653.89,3475.76,11501.74,14572.86
1051857.039,12006.52,5335.0,-4747.25,11179.4,27668.15,3607.42,11660.29,14653.59
1051857.043,12026.07,5394.36,-4713.87,11185.08,27655.41,3559.64,11756.61,14596.42
1051857.047,12050.92,5469.85,-4667.62,11201.1,27641.01,3443.05,11679.27,14520.36
1051857.051,12038.38,5422.4,-4692.6,11194.04,27613.5,3432.23,11489.87,14546.25
1051857.055,12034.8,5363.23,-4714.73,11206.58,27641.73,3582.62,11611.89,14651.11
1051857.059,12065.56,5423.36,-4675.96,11223.94,27669.86,3593.87,11770.01,14631.23
1051857.063,12071.18,5482.63,-4652.02,11216.31,27643.16,3459.41,11710.22,14532.14
1051857.067,12101.6,5491.26,-4635.76,11243.54,27647.74,3455.64,11539.32,14570.76
1051857.071,12081.1,5412.1,-4677.53,11233.86,27657.56,3583.05,11585.19,14664.46
1051857.075,12055.11,5405.33,-4691.89,11208.34,27654.6,3600.65,11754.61,14634.99
1051857.079,12074.19,5481.05,-4655.65,11211.54,27672.44,3483.49,11737.87,14554.26
1051857.083,12066.75,5465.65,-4671.19,11203.15,27654.37,3423.02,11553.05,14544.06
1051857.087,12071.28,5406.38,-4691.17,11221.93,27693.27,3559.4,11566.83,14664.27
1051857.091,12069.99,5407.38,-4689.93,11222.03,27730.33,3651.62,11788.75,14706.95
1051857.095,12022.64,5421.4,-4710.77,11165.52,27665.57,3502.42,11756.8,14578.49
1051857.099,12019.11,5429.13,-4712.06,11154.99,27629.86,3415.06,11574.89,14534.43
1051857.103,12005.81,5357.55,-4740.62,11158.94,27628.85,3494.64,11490.49,14609.48
1051857.107,12008.76,5342.1,-4742.24,11167.58,27666.62,3607.89,11711.41,14666.51
1051857.111,12025.07,5413.77,-4704.76,11170.87,27656.75,3507.04,11758.47,14574.58
1051857.115,12037.42,5449.01,-4694.65,11166.72,27628.66,3401.47,11613.42,14520.84
1051857.119,12020.3,5378.15,-4736.38,11155.42,27605.87,3443.62,11469.41,14580.54
1051857.123,12009.48,5337.33,-4754.02,11155.89,27636.48,3574.37,11660.62,14652.87
1051857.127,12033.18,5413.34,-4704.52,11173.63,27644.92,3506.95,11739.54,14583.49
1051857.1309,12050.77,5469.7,-4669.38,11189.75,27628.95,3402.19,11629.01,14521.89
1051857.1349,12027.69,5401.23,-4708.0,11180.55,27598.58,3416.82,11448.48,14558.22
1051857.1389,12015.06,5346.01,-4740.72,11173.49,27625.09,3561.93,11605.88,14643.53
1051857.1429,12030.08,5401.42,-4708.15,11178.07,27645.69,3541.42,11734.68,14604.47
1051857.1469,12059.26,5476.9,-4664.23,11194.14,27648.6,3447.82,11671.83,14546.3
1051857.1509,12067.27,5450.06,-4669.57,11209.39,27637.58,3449.77,11487.87,14580.11
1051857.1549,12072.9,5399.75,-4688.22,11222.03,27672.2,3605.56,11592.82,14690.5
1051857.1589,12038.52,5399.85,-4703.81,11189.84,27658.37,3583.19,11718.94,14635.37
1051857.1629,12042.71,5461.65,-4674.72,11184.98,27647.16,3466.65,11682.94,14554.36
1051857.1669,12045.91,5445.29,-4676.91,11194.14,27628.76,3432.99,11487.72,14567.09
1051857.1709,12042.91,5377.01,-4713.49,11192.04,27634.91,3559.4,11521.63,14661.08
1051857.1749,12048.1,5399.37,-4694.61,11200.72,27672.48,3603.13,11712.22,14664.99
1051857.1789,12026.26,5440.14,-4692.7,11170.53,27633.24,3444.67,11665.11,14533.19
1051857.1829,12040.28,5456.26,-4672.62,11193.66,27619.99,3396.56,11485.29,14528.09
1051857.1869,12049.39,5401.9,-4688.79,11210.06,27645.16,3516.01,11477.57,14634.23
1051857.1909,12031.6,5377.87,-4715.06,11186.74,27655.32,3573.61,11671.59,14645.15
1051857.1949,12019.11,5425.5,-4703.38,11168.05,27622.61,3435.56,11666.59,14529.23
1051857.1989,12029.6,5449.2,-4684.16,11184.22,27606.82,3366.8,11510.56,14509.35
1051857.2029,12034.8,5389.36,-4711.2,11184.98,27619.75,3463.41,11440.23,14602.71
1051857.2069,12027.46,5362.65,-4732.99,11168.53,27652.22,3578.33,11658.38,14649.58
1051857.2109,11997.99,5393.89,-4732.66,11134.67,27616.79,3456.45,11675.17,14540.72
1051857.2149,12039.76,5462.79,-4684.16,11167.86,27632.62,3405.95,11570.12,14540.58
1051857.2189,12007.05,5378.2,-4733.28,11150.03,27604.77,3430.08,11406.47,14570.71
1051857.2229,12002.66,5343.01,-4745.58,11159.18,27639.3,3566.65,11594.3,14637.23
1051857.2269,12041.52,5430.41,-4692.41,11181.07,27671.53,3533.36,11703.25,14599.61
1051857.2309,12057.02,5485.11,-4662.85,11191.66,27654.37,3426.5,11597.59,14535.38
1051857.2349,12032.94,5415.34,-4698.47,11185.46,27612.36,3427.55,11405.04,14561.23
1051857.2389,12013.48,5349.21,-4733.66,11175.92,27640.3,3569.98,11561.4,14653.02
1051857.2429,12014.44,5392.7,-4713.11,11171.53,27638.96,3533.13,11672.36,14603.52
1051857.2469,12016.82,5446.1,-4689.98,11165.19,27634.1,3412.63,11603.74,14519.93
1051857.2509,12023.02,5419.78,-4696.08,11178.45,27622.99,3402.81,11416.48,14552.79
1051857.2549,12012.53,5355.45,-4722.88,11182.31,27647.02,3547.53,11529.88,14654.07
1051857.2588,12025.21,5394.27,-4702.52,11186.41,27662.09,3549.15,11674.98,14623.93
1051857.2628,12050.82,5476.28,-4659.03,11194.75,27655.32,3442.0,11662.15,14548.35
1051857.2668,12028.98,5442.05,-4678.82,11191.8,27612.02,3382.92,11450.24,14538.86
1051857.2708,12010.0,5361.99,-4721.21,11180.07,27609.78,3489.54,11476.9,14614.3
1051857.2748,12027.07,5384.02,-4707.29,11186.27,27631.86,3532.17,11666.54,14610.44
1051857.2788,12060.07,5475.24,-4660.89,11197.38,27629.76,3429.56,11674.55,14534.0
1051857.2828,12104.32,5522.54,-4616.21,11237.67,27649.07,3406.05,11528.73,14563.61
1051857.2868,12012.48,5370.19,-4730.42,11150.65,27572.54,3431.32,11428.5,14570.52
1051857.2908,12021.45,5368.04,-4735.04,11144.45,27605.78,3522.25,11641.31,14601.18
1051857.2948,12045.15,5447.72,-4687.5,11158.04,27617.03,3435.61,11673.36,14533.24
1051857.2988,12076.05,5490.59,-4649.07,11190.46,27622.75,3374.77,11520.67,14524.46
1051857.3028,12071.28,5432.99,-4670.05,11202.53,27640.25,3470.9,11458.26,14616.97
1051857.3068,12024.88,5368.61,-4718.49,11164.67,27650.07,3568.13,11647.8,14650.01
1051857.3108,12009.86,5412.67,-4707.29,11146.21,27631.14,3467.99,11676.89,14558.22
1051857.3148,12027.98,5456.78,-4683.3,11155.37,27623.56,3376.91,11538.22,14510.44
1051857.3188,12011.72,5388.31,-4716.25,11152.7,27624.32,3439.0,11422.59,14590.12
1051857.3228,12028.84,5368.95,-4714.39,11175.92,27680.69,3592.54,11629.92,14686.25
1051857.3268,12029.27,5415.49,-4701.95,11157.18,27660.04,3514.58,11704.3,14604.0
1051857.3308,12051.54,5477.76,-4664.99,11173.44,27642.16,3403.47,11593.96,14536.38
1051857.3348,12047.82,5435.75,-4677.87,11184.17,27635.24,3430.27,11441.38,14593.08
1051857.3388,12002.28,5345.63,-4730.65,11157.23,27638.87,3548.67,11569.69,14666.23
1051857.3428,12017.39,5400.18,-4698.94,11160.8,27644.11,3512.1,11692.38,14618.78
1051857.3468,12036.13,5466.13,-4666.62,11164.0,27616.17,3382.83,11608.89,14533.47
1051857.3508,12042.05,5441.52,-4674.96,11172.39,27607.3,3384.3,11436.23,14572.81
1051857.3548,12022.31,5364.56,-4719.45,11161.47,27622.56,3512.72,11516.05,14664.22
1051857.3588,12015.73,5382.78,-4720.83,11142.54,27628.81,3510.52,11661.2,14626.65
1051857.3628,12020.64,5445.53,-4697.04,11131.91,27607.49,3391.84,11611.61,14536.53
1051857.3668,12009.43,5419.68,-4710.82,11127.28,27573.49,3342.77,11406.14,14528.66
1051857.3708,12004.9,5353.98,-4736.38,11137.34,27593.04,3462.46,11434.7,14620.5
1051857.3748,11999.23,5358.65,-4730.23,11140.54,27615.17,3497.6,11612.94,14614.39
1051857.3788,12009.62,5426.22,-4698.8,11136.34,27601.44,3372.38,11591.01,14515.35
1051857.3828,12031.99,5446.72,-4681.44,11150.12,27594.33,3325.51,11428.41,14509.97
1051857.3867,12010.43,5362.37,-4724.74,11142.88,27597.24,3425.31,11391.88,14592.6
1051857.3907,11988.21,5332.23,-4755.35,11114.69,27601.44,3501.7,11581.18,14611.77
1051857.3947,12027.17,5428.36,-4699.56,11128.09,27623.23,3421.59,11612.37,14548.07
1051857.3987,12031.37,5446.01,-4690.65,11129.76,27609.45,3347.06,11454.49,14520.79
1051857.4027,12008.38,5364.08,-4734.14,11123.66,27604.87,3414.77,11362.84,14590.88
1051857.4067,12020.49,5361.27,-4723.12,11146.21,27670.29,3564.64,11608.27,14679.34
1051857.4107,12015.58,5412.96,-4705.76,11130.24,27660.85,3473.28,11647.99,14596.18
1051857.4147,11992.31,5419.92,-4717.4,11101.2,27612.59,3347.3,11486.82,14517.21
1051857.4187,11978.63,5354.98,-4743.29,11107.73,27593.81,3382.06,11337.62,14569.19
1051857.4227,11982.92,5323.17,-4752.97,11120.65,27629.81,3524.49,11536.89,14645.77
1051857.4267,11983.21,5372.33,-4734.14,11110.35,27625.04,3451.49,11609.17,14570.62
1051857.4307,11999.61,5432.08,-4695.7,11123.8,27611.83,3348.88,11510.66,14515.26
1051857.4347,12009.1,5397.23,-4701.42,11143.83,27601.25,3374.15,11347.06,14577.68
1051857.4387,11985.59,5327.42,-4745.2,11126.57,27611.88,3506.37,11490.58,14651.82
1051857.4427,12003.38,5379.3,-4711.58,11135.15,27616.79,3472.23,11606.03,14597.85
1051857.4467,12017.63,5441.33,-4685.97,11135.15,27604.77,3358.65,11531.16,14523.94
1051857.4507,11996.46,5387.31,-4722.07,11116.17,27574.21,3331.09,11331.75,14535.29
1051857.4547,11984.02,5318.31,-4757.83,11110.78,27598.1,3468.42,11437.61,14632.75
1051857.4587,12015.2,5377.2,-4709.96,11144.78,27635.53,3496.93,11613.08,14630.84
1051857.4627,12022.16,5442.91,-4680.63,11136.82,27623.32,3381.4,11569.41,14548.26
1051857.4667,12008.0,5414.63,-4702.71,11125.47,27578.69,3314.88,11357.17,14521.55
1051857.4707,11980.73,5328.37,-4748.92,11116.94,27577.74,3424.45,11369.66,14601.28
1051857.4747,11991.17,5343.44,-4735.9,11127.57,27615.03,3484.25,11562.25,14620.12
1051857.4787,12054.83,5467.84,-4646.16,11181.31,27659.42,3427.84,11617.23,14578.49
1051857.4827,12036.85,5456.02,-4659.94,11169.15,27626.18,3356.6,11425.78,14545.63
1051857.4867,11965.99,5323.89,-4758.55,11107.92,27594.24,3411.96,11343.81,14583.45
1051857.4907,11968.95,5317.97,-4764.41,11100.44,27643.45,3515.24,11563.35,14631.18
1051857.4947,11982.68,5390.69,-4731.13,11094.14,27645.16,3419.69,11596.59,14552.88
1051857.4987,12003.95,5424.88,-4712.92,11104.49,27637.44,3344.92,11443.43,14529.23
1051857.5027,11996.32,5361.94,-4738.52,11116.98,27640.25,3425.98,11361.55,14611.63
1051857.5067,11979.06,5328.37,-4749.25,11122.8,27663.95,3543.23,11568.31,14670.33
1051857.5107,11978.39,5379.11,-4729.7,11109.64,27640.35,3442.24,11604.64,14576.34
1051857.5147,12011.24,5441.67,-4688.6,11134.01,27632.14,3351.97,11478.09,14533.38
1051857.5187,11985.35,5367.33,-4726.12,11125.38,27600.34,3382.97,11325.41,14582.35
1051857.5227,11973.76,5315.3,-4754.35,11121.37,27615.46,3506.61,11504.6,14644.77
1051857.5267,12005.76,5392.27,-4711.01,11139.44,27618.46,3446.87,11597.35,14583.54
1051857.5307,12028.74,5453.97,-4675.34,11152.22,27590.8,3326.27,11482.19,14511.49
1051857.5347,12012.2,5395.13,-4716.83,11130.14,27551.51,3324.94,11299.42,14537.29
1051857.5387,12004.62,5340.72,-4744.24,11122.94,27590.23,3480.82,11457.35,14638.85
1051857.5427,12028.89,5402.42,-4704.29,11135.34,27618.41,3476.52,11596.73,14610.24
1051857.5467,12006.05,5428.74,-4714.49,11096.43,27557.71,3315.4,11482.86,14482.55
1051857.5507,11992.22,5391.74,-4731.85,11099.29,27535.58,3300.67,11290.6,14499.86
1051857.5547,11967.66,5313.21,-4769.04,11100.53,27561.19,3441.72,11372.57,14595.32
1051857.5587,11975.72,5339.19,-4758.84,11094.62,27584.84,3463.98,11531.69,14583.88
1051857.5627,11996.7,5415.25,-4717.68,11100.72,27582.36,3363.8,11515.86,14509.39
1051857.5667,11993.84,5398.18,-4728.32,11099.96,27583.75,3332.04,11336.85,14516.4
1051857.5707,11975.67,5316.16,-4774.86,11092.23,27612.69,3460.74,11364.65,14612.25
1051857.5747,11975.72,5323.79,-4767.7,11099.1,27648.83,3519.49,11564.49,14626.79
1051857.5786,11989.55,5399.85,-4726.84,11103.68,27647.36,3410.01,11575.84,14543.54
1051857.5826,11982.35,5392.7,-4734.42,11093.52,27616.46,3339.67,11396.12,14526.56
1051857.5866,11956.88,5308.2,-4777.29,11082.7,27613.31,3436.14,11350.78,14613.82
1051857.5906,11954.74,5299.66,-4780.44,11084.61,27642.78,3532.22,11564.45,14652.06
1051857.5946,11983.78,5388.83,-4723.41,11106.4,27644.54,3432.42,11597.44,14570.76
1051857.5986,11968.23,5388.69,-4734.95,11083.89,27584.51,3311.83,11405.14,14502.24
1051857.6026,11962.22,5319.55,-4773.81,11079.65,27572.25,3373.77,11298.42,14567.33
1051857.6066,11986.78,5319.6,-4760.17,11107.83,27636.05,3525.07,11545.99,14658.26
1051857.6106,11974.15,5370.09,-4740.91,11094.14,27605.01,3408.72,11572.31,14557.17
1051857.6146,11960.94,5387.16,-4743.72,11074.69,27557.19,3274.16,11404.42,14472.68
1051857.6186,11963.65,5340.86,-4756.17,11092.04,27550.22,3325.08,11266.61,14532.95
1051857.6226,11974.72,5313.44,-4760.46,11110.74,27597.34,3490.69,11464.17,14632.08
1051857.6266,11976.29,5361.51,-4742.43,11100.34,27591.18,3418.49,11544.66,14550.02
1051857.6306,11988.36,5420.59,-4706.86,11114.65,27574.45,3301.05,11441.28,14475.82
1051857.6346,11990.12,5384.4,-4718.64,11120.08,27568.06,3324.32,11272.72,14527.37
1051857.6386,11977.39,5319.6,-4754.21,11110.12,27593.23,3469.61,11410.48,14616.35
1051857.6426,11985.97,5363.61,-4729.7,11112.31,27600.24,3455.21,11540.08,14578.11
1051857.6466,12004.9,5433.23,-4696.85,11111.59,27583.32,3343.77,11475.09,14503.62
1051857.6506,11994.55,5396.13,-4716.68,11109.93,27562.29,3328.37,11285.31,14521.74
1051857.6546,11972.57,5314.11,-4759.5,11102.39,27586.46,3470.14,11370.42,14618.83
1051857.6586,11977.72,5338.96,-4745.58,11105.11,27621.89,3495.36,11548.95,14612.91
1051857.6626,11994.51,5414.87,-4704.52,11114.22,27626.47,3384.45,11534.36,14541.77
1051857.6666,12000.37,5410.34,-4705.48,11119.03,27613.79,3346.21,11357.5,14554.45
1051857.6706,11975.77,5326.22,-4748.68,11114.69,27622.27,3470.14,11379.24,14653.49
1051857.6746,11950.45,5305.34,-4777.48,11081.74,27623.99,3490.69,11544.85,14626.79
1051857.6786,11957.6,5368.52,-4750.54,11071.35,27598.72,3364.42,11531.26,14527.04
1051857.6826,11973.86,5390.6,-4733.52,11086.47,27580.69,3303.58,11360.79,14515.5
1051857.6866,11958.51,5316.4,-4768.09,11084.84,27576.35,3396.56,11310.39,14597.8
1051857.6906,11964.42,5312.01,-4762.46,11101.68,27614.69,3501.37,11520.43,14644.34
1051857.6946,11982.68,5391.26,-4720.88,11109.73,27606.3,3400.85,11550.14,14557.98
1051857.6986,12001.71,5428.93,-4700.38,11119.08,27584.03,3317.4,11396.65,14518.07
1051857.7026,11998.03,5366.61,-4720.02,11133.0,27584.7,3388.79,11296.08,14588.93
1051857.7065,11982.59,5329.28,-4751.16,11108.07,27609.88,3499.99,11493.4,14638.33
1051857.7105,11987.4,5391.55,-4719.02,11105.49,27599.43,3405.0,11543.32,14550.4
1051857.7145,12023.69,5462.31,-4665.95,11141.16,27582.6,3303.72,11412.43,14494.85
1051857.7185,12017.16,5405.09,-4696.7,11136.01,27549.27,3333.0,11252.93,14535.81
1051857.7225,12007.91,5355.88,-4723.17,11131.43,27576.97,3473.23,11433.56,14613.77
1051857.7265,12021.02,5413.87,-4691.94,11132.43,27575.31,3415.06,11530.16,14552.07
1051857.7305,12036.9,5475.81,-4662.04,11138.77,27551.18,3297.23,11425.12,14481.5
1051857.7345,12037.8,5439.81,-4672.43,11151.74,27536.92,3319.03,11260.42,14532.47
1051857.7385,12011.82,5361.37,-4715.01,11142.26,27560.19,3464.13,11396.41,14623.31
1051857.7425,12013.01,5393.79,-4698.71,11138.63,27580.55,3458.12,11542.42,14593.32
1051857.7465,12055.83,5490.21,-4638.05,11168.86,27608.16,3369.52,11505.46,14549.5
1051857.7505,12029.79,5440.76,-4675.34,11151.03,27581.65,3341.29,11310.58,14559.94
1051857.7545,12030.56,5385.64,-4694.99,11166.19,27619.27,3489.45,11402.42,14666.56
1051857.7585,11991.88,5371.14,-4717.54,11131.19,27608.4,3472.23,11541.27,14616.3
1051857.7625,11982.54,5416.44,-4709.44,11106.59,27554.47,3309.25,11462.02,14487.32
1051857.7665,12003.09,5426.36,-4695.85,11125.52,27564.05,3289.6,11306.57,14507.1
1051857.7705,12008.86,5372.57,-4711.06,11143.4,27600.43,3430.65,11333.61,14617.97
1051857.7745,12018.25,5385.88,-4704.43,11143.88,27615.46,3483.92,11508.75,14618.88
1051857.7785,12007.76,5444.81,-4673.0,11134.86,27583.75,3356.5,11491.73,14516.64
1051857.7825,12024.5,5470.8,-4647.16,11158.28,27573.54,3301.33,11340.14,14505.29
1051857.7865,12035.09,5417.97,-4662.37,11183.31,27569.73,3382.4,11271.57,14579.06
1051857.7905,12071.09,5437.18,-4642.96,11203.96,27596.43,3473.33,11474.61,14615.39
1051857.7945,12061.79,5487.82,-4627.28,11184.74,27569.49,3347.49,11491.73,14507.25
1051857.7985,12054.54,5503.37,-4628.33,11167.96,27549.08,3253.46,11347.3,14464.81
1051857.8025,12051.77,5440.66,-4663.52,11160.42,27544.93,3317.55,11236.48,14537.62
1051857.8065,12051.87,5413.2,-4675.29,11161.52,27583.55,3448.68,11446.86,14602.95
1051857.8105,12038.14,5459.07,-4648.5,11160.8,27566.01,3355.46,11491.92,14519.84
1051857.8145,12039.33,5495.26,-4631.04,11164.57,27541.45,3244.59,11357.93,14460.04
1051857.8185,12021.54,5429.55,-4666.71,11156.66,27527.76,3285.84,11210.2,14516.36
1051857.8225,12008.33,5376.01,-4694.41,11151.27,27560.52,3440.09,11396.36,14603.43
1051857.8265,12017.59,5429.46,-4668.19,11150.08,27561.57,3393.79,11496.83,14553.5
1051857.8305,12033.51,5491.07,-4628.99,11168.86,27539.49,3281.21,11395.41,14490.89
1051857.8344,12033.61,5456.26,-4639.39,11184.5,27534.54,3292.47,11217.55,14527.51
1051857.8384,12008.57,5381.58,-4682.06,11170.96,27576.35,3450.58,11362.84,14623.55
1051857.8424,11994.51,5404.33,-4676.91,11154.56,27595.14,3446.72,11498.4,14597.8
1051857.8464,12005.52,5468.99,-4641.53,11160.28,27591.99,3335.05,11446.29,14524.18
1051857.8504,12006.67,5449.1,-4647.21,11173.44,27579.84,3316.59,11266.42,14538.72
1051857.8544,11998.42,5379.92,-4682.02,11173.92,27604.01,3457.26,11344.43,14632.8
1051857.8584,11992.6,5388.88,-4686.5,11158.66,27616.79,3477.48,11503.17,14615.68
1051857.8624,12015.92,5473.09,-4638.43,11170.05,27620.37,3375.82,11504.13,14542.58
1051857.8664,11999.08,5450.06,-4653.07,11160.8,27592.33,3315.97,11312.34,14528.23
1051857.8704,11967.09,5355.41,-4710.87,11131.81,27596.05,3426.03,11315.06,14613.34
1051857.8744,11953.21,5341.96,-4725.7,11114.69,27606.82,3469.71,11492.68,14611.63
1051857.8784,11992.5,5441.43,-4662.66,11140.4,27615.98,3371.29,11524.01,14538.43
1051857.8824,11959.36,5416.92,-4693.56,11104.63,27551.7,3260.28,11320.74,14476.78
1051857.8864,11927.7,5325.32,-4749.54,11087.85,27536.44,3339.1,11242.92,14548.64
1051857.8904,11920.22,5302.62,-4768.18,11081.6,27556.18,3433.66,11437.99,14583.97
1051857.8944,11924.65,5366.14,-4739.33,11077.93,27560.38,3340.39,11486.96,14501.33
1051857.8984,11929.23,5391.98,-4731.42,11069.49,27535.58,3236.39,11336.04,14450.6
1051857.9024,11924.36,5334.85,-4746.29,11085.75,27524.86,3302.72,11220.08,14524.65
1051857.9064,11921.84,5301.43,-4760.93,11087.94,27550.46,3430.7,11418.34,14590.03
1051857.9104,11929.8,5361.99,-4733.42,11080.41,27546.31,3353.64,11489.3,14519.31
1051857.9144,11934.42,5407.0,-4710.01,11084.75,27531.91,3235.72,11357.98,14455.22
1051857.9184,11946.58,5374.1,-4713.63,11105.97,27548.27,3287.94,11228.47,14525.03
1051857.9224,11917.93,5297.85,-4762.51,11083.56,27562.72,3410.2,11372.52,14584.83
1051857.9264,11923.12,5346.92,-4735.99,11081.08,27578.45,3369.19,11491.92,14532.62
1051857.9304,11947.97,5421.07,-4688.12,11098.96,27577.17,3262.09,11404.66,14469.67
1051857.9344,11943.87,5380.11,-4708.39,11101.72,27558.9,3271.34,11228.28,14507.82
1051857.9384,11937.52,5316.73,-4744.39,11100.63,27586.18,3421.88,11339.81,14603.14
1051857.9424,11943.63,5354.83,-4723.31,11105.54,27601.72,3424.93,11490.06,14577.2
1051857.9464,11957.46,5423.02,-4683.11,11111.17,27589.37,3314.83,11436.75,14506.53
1051857.9504,11964.04,5408.67,-4682.11,11126.33,27578.45,3308.92,11262.37,14532.81
1051857.9544,11931.33,5317.74,-4736.38,11107.64,27580.69,3430.03,11299.42,14615.97
1051857.9584,11928.13,5331.95,-4730.85,11102.3,27597.29,3458.79,11472.89,14607.1
1051857.9623,11947.68,5405.95,-4693.41,11106.97,27586.84,3342.58,11453.34,14529.04
1051857.9663,11952.31,5402.8,-4697.75,11105.63,27566.34,3291.51,11271.86,14524.84
1051857.9703,11919.26,5307.34,-4758.64,11079.98,27551.27,3376.77,11235.76,14593.32
1051857.9743,11900.66,5289.27,-4775.72,11061.29,27558.76,3430.18,11421.01,14592.6
1051857.9783,11911.11,5356.22,-4743.58,11059.91,27551.46,3308.06,11424.3,14499.86
1051857.9823,11913.21,5367.18,-4741.53,11061.29,27532.01,3237.82,11265.42,14480.35
1051857.9863,11896.99,5291.27,-4774.76,11062.34,27525.48,3317.5,11189.03,14561.32
1051857.9903,11889.6,5270.15,-4782.25,11064.48,27545.6,3406.53,11389.16,14593.98
1051857.9943,11905.67,5344.96,-4742.58,11068.92,27538.83,3306.82,11423.88,14511.63
1051857.9983,11916.07,5379.63,-4728.13,11073.16,27521.57,3210.64,11292.65,14453.75
1051858.0023,11904.62,5309.63,-4763.17,11071.78,27524.86,3271.34,11170.01,14524.27
1051858.0063,11894.9,5268.53,-4784.39,11067.68,27573.83,3404.38,11379.15,14599.52
1051858.0103,11924.13,5348.02,-4735.66,11082.17,27606.11,3346.16,11476.61,14546.3
1051858.0143,11923.55,5387.88,-4721.59,11069.97,27584.6,3241.01,11377.38,14476.21
1051858.0183,11912.73,5327.23,-4755.78,11068.54,27570.78,3265.05,11200.52,14524.89
1051858.0223,11904.57,5275.39,-4778.53,11068.68,27609.16,3424.02,11379.39,14620.21
1051858.0263,11904.96,5320.79,-4753.73,11066.1,27609.07,3385.97,11484.48,14570.43
1051858.0303,11925.98,5389.26,-4711.2,11083.37,27588.8,3274.54,11395.12,14497.09
1051858.0343,11918.98,5347.92,-4728.51,11089.28,27564.81,3278.88,11197.52,14535.38
1051858.0383,11904.81,5281.97,-4758.07,11090.76,27591.85,3431.42,11325.36,14631.18
1051858.0423,11924.94,5333.38,-4723.36,11106.35,27605.3,3428.65,11471.8,14598.47
1051858.0463,11945.11,5401.42,-4693.94,11104.25,27581.27,3300.09,11405.09,14511.54
1051858.0503,11935.95,5370.57,-4711.44,11100.29,27550.75,3263.95,11202.72,14518.45
1051858.0543,11905.67,5285.74,-4759.65,11082.22,27557.66,3388.31,11255.46,14600.37
1051858.0583,11905.15,5302.81,-4752.3,11078.07,27578.4,3422.4,11437.61,14592.65
1051858.0623,11926.89,5381.49,-4708.58,11086.85,27561.0,3298.81,11407.33,14504.29
1051858.0663,11935.28,5383.4,-4703.71,11092.23,27527.62,3231.24,11215.74,14487.65
1051858.0703,11918.69,5305.1,-4745.34,11088.42,27531.48,3335.14,11196.66,14571.57
1051858.0743,11921.45,5307.29,-4743.53,11090.42,27571.35,3421.45,11410.29,14604.76
1051858.0783,11932.66,5381.16,-4705.81,11092.23,27558.38,3313.16,11421.06,14515.78
1051858.0823,11917.26,5377.25,-4718.69,11071.11,27524.67,3217.17,11236.86,14471.87
1051858.0863,11906.43,5304.24,-4758.45,11064.01,27530.72,3290.94,11154.13,14536.95
1051858.0902,11888.98,5267.86,-4784.39,11049.41,27555.47,3386.45,11346.96,14576.44
1051858.0942,11902.24,5338.62,-4744.05,11060.14,27562.1,3300.33,11410.71,14501.29
1051858.0982,11918.93,5384.92,-4716.25,11071.11,27545.69,3207.06,11277.34,14452.17
1051858.1022,11910.11,5323.6,-4741.62,11072.4,27538.59,3254.37,11144.4,14509.25
1051858.1062,11902.52,5280.4,-4763.79,11070.68,27578.79,3385.07,11333.71,14584.64
1051858.1102,11919.02,5344.96,-4732.56,11069.59,27591.52,3329.42,11431.27,14520.12
1051858.1142,11939.53,5402.52,-4703.95,11076.5,27583.65,3234.67,11330.51,14467.38
1051858.1182,11930.9,5352.21,-4728.37,11078.79,27575.93,3268.19,11168.0,14526.94
1051858.1222,11898.9,5274.58,-4775.86,11058.0,27587.27,3398.61,11307.86,14592.94
1051858.1262,11899.14,5314.54,-4755.93,11053.52,27592.14,3373.24,11431.65,14547.16
1051858.1302,11914.3,5378.25,-4719.31,11064.2,27567.06,3257.18,11342.19,14479.92
1051858.1342,11909.96,5342.15,-4736.14,11067.96,27536.44,3252.13,11151.74,14507.49
1051858.1382,11892.22,5272.44,-4770.76,11063.77,27551.37,3388.79,11250.21,14597.37
1051858.1422,11900.62,5309.96,-4750.3,11064.72,27565.91,3397.23,11414.67,14575.77
1051858.1462,11921.98,5381.68,-4714.2,11070.21,27543.6,3264.09,11348.63,14486.74
1051858.1502,11922.89,5365.28,-4723.07,11071.68,27511.46,3225.04,11157.37,14485.12
1051858.1542,11916.07,5297.33,-4753.16,11074.31,27518.8,3346.87,11192.28,14576.15
1051858.1582,11922.31,5319.02,-4741.43,11076.83,27537.02,3377.96,11373.95,14568.86
1051858.1622,11933.95,5392.84,-4704.19,11079.98,27521.76,3253.22,11361.6,14474.78
1051858.1662,11936.81,5395.51,-4700.76,11084.61,27501.11,3195.76,11180.97,14460.28
1051858.1702,11914.06,5313.3,-4744.29,11078.74,27503.49,3294.33,11144.93,14539.86
1051858.1742,11911.92,5307.01,-4752.49,11070.54,27534.39,3372.76,11342.0,14568.9
1051858.1782,11930.37,5386.35,-4707.15,11081.12,27524.62,3267.34,11360.6,14476.83
1051858.1822,11944.1,5412.87,-4687.26,11093.76,27504.92,3194.43,11203.0,14445.59
1051858.1862,11950.69,5358.12,-4707.67,11109.4,27539.4,3294.85,11143.35,14548.49
1051858.1902,11903.24,5291.56,-4761.46,11066.91,27542.93,3374.48,11321.64,14568.86
1051858.1942,11912.2,5357.12,-4728.51,11067.77,27547.84,3288.27,11379.86,14490.03
1051858.1982,11927.94,5395.56,-4712.3,11071.68,27539.45,3199.29,11260.99,14449.46
1051858.2022,11888.31,5305.34,-4766.51,11047.17,27522.28,3236.82,11107.92,14499.81
1051858.2062,11884.79,5268.38,-4782.49,11047.03,27576.02,3389.07,11318.11,14586.12
1051858.2102,11891.27,5323.89,-4755.83,11041.93,27577.12,3320.03,11395.22,14513.45
1051858.2142,11911.58,5380.01,-4725.17,11053.37,27574.69,3236.2,11312.92,14469.34
1051858.2181,11911.49,5337.38,-4741.48,11061.62,27574.83,3279.69,11159.85,14534.76
1051858.2221,11862.47,5245.97,-4797.98,11033.44,27563.48,3392.36,11269.33,14584.73
1051858.2261,11892.61,5317.4,-4747.73,11062.29,27588.66,3380.68,11409.57,14560.61
1051858.2301,11903.24,5374.96,-4726.51,11051.23,27553.75,3250.07,11317.21,14471.72
1051858.2341,11902.33,5344.82,-4738.81,11055.57,27520.14,3235.25,11121.8,14486.17
1051858.2381,11889.13,5278.16,-4767.56,11058.76,27537.54,3377.39,11225.03,14579.2
1051858.2421,11894.66,5309.63,-4757.07,11054.04,27548.36,3370.95,11377.05,14547.64
1051858.2461,11931.71,5403.33,-4698.75,11080.98,27544.74,3253.79,11344.05,14471.1
1051858.2501,11933.28,5391.88,-4698.37,11091.9,27512.94,3208.45,11145.88,14468.24
1051858.2541,11928.61,5327.51,-4723.88,11099.2,27518.42,3338.05,11171.25,14567.9
1051858.2581,11926.13,5334.81,-4721.12,11096.38,27546.6,3380.16,11353.54,14566.04
1051858.2621,11927.22,5397.84,-4693.13,11083.79,27531.44,3248.12,11338.19,14461.23
1051858.2661,11930.9,5401.52,-4691.89,11082.56,27498.82,3180.12,11154.41,14437.01
1051858.2701,11914.87,5322.6,-4730.03,11083.99,27500.68,3285.46,11119.8,14523.32
1051858.2741,11917.02,5320.26,-4729.37,11086.37,27541.35,3379.54,11336.18,14565.09
1051858.2781,11940.53,5401.99,-4681.54,11098.2,27546.22,3283.55,11368.71,14492.47
1051858.2821,11932.9,5405.43,-4687.5,11089.71,27516.65,3190.42,11201.67,14442.92
1051858.2861,11897.33,5310.2,-4749.01,11067.11,27509.74,3253.75,11104.3,14505.1
1051858.2901,11880.3,5274.87,-4774.57,11052.28,27554.75,3371.53,11322.55,14565.04
1051858.2941,11884.74,5336.09,-4744.39,11045.5,27561.81,3281.5,11381.44,14483.31
1051858.2981,11899.52,5377.67,-4721.5,11051.47,27556.04,3195.0,11251.74,14444.16
1051858.3021,11887.03,5308.06,-4760.74,11045.55,27555.95,3247.17,11111.26,14503.24
1051858.3061,11865.66,5253.7,-4793.07,11035.06,27591.76,3389.22,11295.13,14579.01
1051858.3101,11878.54,5314.88,-4759.79,11038.02,27602.72,3336.67,11390.74,14523.17
1051858.3141,11899.76,5376.91,-4724.12,11049.75,27589.23,3245.93,11311.34,14468.48
1051858.3181,11886.46,5320.41,-4752.02,11046.32,27557.04,3262.33,11121.89,14513.16
1051858.3221,11862.66,5247.88,-4795.93,11027.39,27567.91,3389.22,11249.31,14581.35
1051858.3261,11871.29,5293.08,-4775.57,11021.81,27566.15,3343.39,11361.22,14520.12
1051858.3301,11895.51,5367.23,-4730.51,11040.45,27551.7,3233.48,11308.24,14452.89
1051858.3341,11908.29,5350.45,-4729.56,11063.96,27529.43,3223.8,11116.32,14482.45
1051858.3381,11890.79,5278.16,-4764.03,11061.15,27536.4,3355.36,11196.09,14565.37
1051858.3421,11888.03,5300.71,-4758.45,11045.79,27522.76,3338.77,11335.42,14520.6
1051858.346,11924.22,5395.13,-4702.23,11068.87,27504.11,3208.78,11288.02,14437.1
1051858.35,11937.76,5397.27,-4689.41,11094.05,27478.03,3178.36,11098.43,14452.89
1051858.354,11928.61,5331.09,-4718.02,11099.48,27484.52,3302.72,11122.7,14541.15
1051858.358,11933.19,5349.02,-4705.91,11100.25,27497.25,3350.64,11311.82,14542.44
1051858.362,11961.03,5435.04,-4657.27,11116.89,27483.42,3232.86,11303.19,14458.37
1051858.366,11978.29,5449.25,-4642.01,11137.39,27489.71,3184.89,11141.68,14462.23
1051858.37,11938.05,5346.01,-4704.43,11109.16,27496.48,3278.45,11100.67,14536.81
1051858.374,11920.74,5322.27,-4722.45,11093.0,27526.67,3362.51,11300.42,14559.7
1051858.378,11926.37,5386.97,-4698.37,11082.08,27532.96,3262.33,11332.27,14475.25
1051858.382,11932.57,5405.09,-4691.89,11082.98,27531.1,3191.76,11180.21,14449.41
1051858.386,11904.96,5322.74,-4737.09,11073.69,27543.07,3277.68,11093.9,14527.47
1051858.39,11881.88,5279.26,-4764.99,11062.05,27586.89,3403.47,11295.89,14588.64
1051858.394,11890.94,5346.25,-4729.32,11064.72,27592.19,3319.07,11364.99,14507.77
1051858.398,11902.14,5386.5,-4705.86,11072.3,27580.41,3232.43,11248.92,14463.24
1051858.402,11885.6,5319.79,-4743.2,11063.77,27566.1,3276.16,11097.81,14520.07
1051858.406,11867.81,5263.38,-4774.86,11050.99,27593.23,3406.14,11266.61,14590.88
1051858.41,11878.59,5320.03,-4743.05,11049.32,27591.99,3341.68,11362.08,14525.46
1051858.414,11888.27,5374.1,-4714.73,11056.09,27561.76,3226.23,11270.48,14448.74
1051858.418,11875.73,5323.46,-4740.91,11054.37,27534.58,3234.63,11083.08,14490.42
1051858.422,11859.47,5257.99,-4778.72,11041.4,27549.46,3360.8,11204.91,14564.56
1051858.426,11876.2,5310.01,-4751.44,11044.89,27553.85,3325.84,11325.17,14514.59
1051858.43,11905.53,5389.98,-4700.42,11069.78,27541.12,3216.93,11276.15,14445.69
1051858.434,11905.29,5360.75,-4712.44,11070.92,27512.98,3194.71,11077.79,14463.09
1051858.438,11896.66,5295.09,-4746.29,11070.16,27534.2,3330.28,11162.43,14561.56
1051858.442,11890.41,5313.54,-4743.05,11058.05,27532.34,3322.79,11321.12,14525.7
1051858.446,11904.48,5381.49,-4711.25,11056.33,27500.82,3182.13,11265.9,14429.62
1051858.45,11905.81,5370.47,-4712.63,11066.01,27474.5,3129.82,11076.21,14426.66
1051858.454,11891.37,5298.52,-4745.2,11067.39,27485.33,3249.31,11096.43,14515.31
1051858.458,11901.57,5317.35,-4731.61,11071.92,27516.56,3314.4,11301.42,14529.13
1051858.462,11926.13,5398.18,-4687.6,11079.74,27511.79,3211.36,11305.62,14449.22
1051858.466,11931.33,5407.24,-4684.54,11080.7,27508.12,3172.78,11146.45,14447.5
1051858.47,11903.81,5321.46,-4728.17,11076.98,27519.04,3280.74,11101.29,14532.76
1051858.4744,11896.9,5304.24,-4742.91,11065.06,27555.66,3378.3,11309.63,14570.52
1051858.4784,11901.28,5370.9,-4711.15,11059.71,27561.62,3283.79,11348.3,14490.22
1051858.4824,11911.58,5399.51,-4692.89,11068.77,27554.42,3211.4,11211.11,14458.18
