TimeStamp,AF7,FP1,FP2,AF8,O1,O2,I1,I2
1052097.2826,8791.02,2907.66,-6707.1,5328.61,21403.36,-6546.21,-7337.19,9562.3
1052097.2866,8782.53,2916.38,-6702.61,5329.28,21377.76,-6604.0,-7429.7,9528.73
1052097.2906,8766.13,2833.89,-6747.63,5318.4,21347.1,-6592.13,-7597.45,9576.04
1052097.2946,8780.67,2823.88,-6745.58,5327.85,21390.82,-6502.25,-7453.25,9628.39
1052097.2986,8783.06,2886.49,-6716.59,5330.37,21411.95,-6534.43,-7337.95,9575.32
1052097.3026,8761.69,2897.69,-6723.55,5312.2,21382.76,-6605.01,-7402.42,9521.06
1052097.3066,8755.26,2825.21,-6763.03,5305.96,21344.9,-6616.93,-7603.03,9554.34
1052097.3106,8754.54,2783.01,-6782.63,5309.96,21368.12,-6538.06,-7511.66,9610.61
1052097.3146,8759.21,2842.0,-6750.92,5310.92,21392.44,-6545.88,-7364.66,9577.9
1052097.3186,8759.4,2896.5,-6724.12,5305.29,21381.0,-6599.09,-7378.53,9526.02
1052097.3226,8756.83,2845.24,-6743.19,5314.49,21335.75,-6632.23,-7595.02,9539.37
1052097.3266,8759.88,2786.06,-6774.38,5315.69,21347.91,-6556.65,-7553.77,9601.17
1052097.3306,8761.26,2837.37,-6751.82,5315.21,21384.86,-6535.34,-7392.55,9594.35
1052097.3346,8776.48,2898.55,-6719.92,5316.31,21389.39,-6587.79,-7361.6,9540.85
1052097.3386,8775.28,2857.26,-6737.09,5321.84,21354.44,-6625.7,-7554.1,9549.05
1052097.3426,8757.31,2787.3,-6769.51,5325.7,21367.12,-6558.51,-7553.05,9603.84
1052097.3466,8739.9,2806.62,-6774.19,5294.51,21382.91,-6540.39,-7401.75,9579.18
1052097.3506,8753.25,2885.06,-6738.43,5295.28,21382.48,-6599.57,-7370.62,9519.39
1052097.3546,8759.88,2871.32,-6743.57,5308.82,21356.87,-6635.71,-7524.59,9521.1
1052097.3586,8750.39,2787.69,-6780.1,5309.06,21333.12,-6602.72,-7610.47,9566.12
1052097.3626,8750.87,2804.42,-6765.51,5306.86,21366.74,-6555.65,-7447.39,9574.37
1052097.3666,8766.32,2883.1,-6725.26,5314.54,21376.04,-6604.67,-7377.82,9512.14
1052097.3706,8763.84,2878.0,-6726.46,5325.17,21351.34,-6638.72,-7497.98,9514.14
1052097.3746,8756.3,2795.89,-6765.03,5323.7,21335.08,-6601.0,-7612.99,9575.99
1052097.3786,8756.11,2792.02,-6773.81,5309.15,21368.7,-6547.98,-7463.31,9590.34
1052097.3826,8762.84,2865.6,-6742.19,5301.29,21383.19,-6588.03,-7364.46,9534.5
1052097.3866,8767.46,2882.24,-6735.18,5300.86,21362.26,-6636.24,-7453.73,9512.95
1052097.3906,8748.68,2801.9,-6771.28,5305.1,21334.6,-6624.32,-7620.67,9563.4
1052097.3946,8750.96,2779.87,-6778.62,5310.73,21362.83,-6555.08,-7491.21,9597.78
1052097.3986,8752.73,2848.34,-6744.15,5306.67,21381.76,-6584.36,-7370.66,9543.52
1052097.4026,8773.61,2893.64,-6719.92,5314.16,21380.19,-6620.79,-7404.76,9521.77
1052097.4066,8766.41,2825.12,-6752.01,5317.12,21346.95,-6626.37,-7593.35,9559.58
1052097.4105,8745.05,2770.52,-6783.34,5301.76,21356.35,-6558.47,-7512.38,9599.59
1052097.4145,8755.54,2841.85,-6742.29,5308.82,21391.68,-6557.37,-7368.47,9569.17
1052097.4185,8760.21,2893.31,-6726.6,5305.48,21380.71,-6614.3,-7377.82,9518.05
1052097.4225,8754.73,2837.37,-6756.83,5304.48,21344.85,-6636.72,-7572.84,9541.66
1052097.4265,8741.19,2771.19,-6790.73,5304.67,21359.83,-6549.5,-7533.03,9613.8
1052097.4305,8746.2,2820.44,-6760.55,5308.58,21378.81,-6553.32,-7396.79,9571.41
1052097.4345,8757.83,2895.36,-6721.55,5317.45,21392.25,-6604.77,-7344.91,9512.71
1052097.4385,8754.54,2852.34,-6745.86,5313.83,21354.49,-6634.52,-7539.8,9535.27
1052097.4425,8741.28,2775.72,-6785.58,5307.72,21346.29,-6575.2,-7570.12,9591.91
1052097.4465,8751.63,2823.02,-6754.45,5316.93,21387.91,-6543.92,-7388.83,9578.04
1052097.4505,8751.77,2884.58,-6728.51,5307.87,21383.91,-6605.82,-7365.13,9523.25
1052097.4545,8746.24,2855.92,-6744.19,5301.14,21341.04,-6643.25,-7542.9,9535.12
1052097.4585,8732.51,2770.09,-6787.73,5299.71,21327.97,-6605.01,-7613.47,9578.37
1052097.4625,8740.14,2790.26,-6782.77,5299.52,21352.72,-6567.91,-7459.83,9567.74
1052097.4665,8770.99,2889.54,-6730.37,5311.92,21386.58,-6590.37,-7360.08,9535.12
1052097.4705,8780.05,2893.59,-6724.45,5323.36,21372.94,-6625.46,-7475.66,9533.5
1052097.4745,8746.67,2780.15,-6786.25,5299.71,21326.93,-6628.85,-7630.87,9548.57
1052097.4785,8741.81,2780.39,-6781.29,5304.96,21360.88,-6558.61,-7487.25,9583.28
1052097.4825,8740.38,2859.02,-6750.97,5301.86,21375.61,-6598.09,-7387.69,9524.63
1052097.4865,8756.21,2884.2,-6744.58,5300.67,21353.77,-6651.21,-7474.76,9495.31
1052097.4905,8758.21,2810.57,-6773.71,5298.71,21325.88,-6635.24,-7639.84,9547.66
1052097.4945,8738.61,2771.52,-6791.45,5290.56,21343.71,-6570.44,-7518.1,9577.18
1052097.4985,8750.2,2851.15,-6748.39,5300.09,21364.36,-6586.12,-7394.65,9539.22
1052097.5025,8755.16,2883.82,-6738.52,5298.04,21352.34,-6637.29,-7448.34,9505.42
1052097.5065,8748.29,2810.96,-6774.19,5298.42,21327.4,-6646.78,-7639.12,9541.23
1052097.5105,8734.37,2759.98,-6804.04,5297.14,21345.43,-6569.96,-7549.95,9588.62
1052097.5145,8752.97,2833.89,-6768.66,5295.42,21372.75,-6578.26,-7412.05,9546.71
1052097.5185,8769.94,2890.92,-6742.34,5293.42,21383.96,-6615.93,-7399.56,9524.97
1052097.5225,8750.15,2821.11,-6777.76,5285.79,21340.61,-6641.25,-7600.74,9547.57
1052097.5265,8734.8,2762.79,-6800.46,5293.04,21333.89,-6577.11,-7590.01,9592.34
1052097.5305,8749.34,2824.5,-6760.36,5306.2,21365.36,-6570.77,-7431.75,9556.58
1052097.5345,8762.65,2891.21,-6725.98,5312.87,21371.99,-6624.32,-7402.9,9506.85
1052097.5384,8755.11,2846.53,-6748.49,5308.77,21332.55,-6657.7,-7588.01,9516.62
1052097.5424,8745.48,2774.19,-6783.58,5306.77,21325.59,-6596.28,-7610.61,9572.03
1052097.5464,8755.4,2816.77,-6763.13,5306.53,21358.59,-6558.75,-7446.34,9570.89
1052097.5504,8766.32,2892.45,-6726.31,5302.1,21370.03,-6600.52,-7383.59,9521.49
1052097.5544,8776.0,2870.7,-6735.99,5304.43,21337.65,-6641.34,-7542.32,9513.43
1052097.5584,8748.82,2774.19,-6792.64,5283.98,21319.68,-6607.34,-7625.82,9563.59
1052097.5624,8741.81,2794.46,-6779.24,5295.32,21359.59,-6555.41,-7449.77,9573.89
1052097.5664,8759.79,2879.91,-6725.5,5309.68,21376.9,-6601.29,-7373.76,9516.53
1052097.5704,8769.13,2886.15,-6724.45,5314.59,21351.86,-6647.87,-7496.69,9504.51
1052097.5744,8760.74,2805.66,-6770.18,5300.95,21329.74,-6624.27,-7629.35,9555.15
1052097.5784,8762.79,2807.86,-6765.22,5305.43,21361.26,-6556.94,-7478.76,9582.57
1052097.5824,8785.87,2890.3,-6713.92,5320.6,21387.29,-6583.69,-7366.94,9544.8
1052097.5864,8754.68,2882.29,-6734.66,5297.23,21347.38,-6650.59,-7470.23,9500.74
1052097.5904,8742.62,2807.24,-6769.37,5310.92,21323.92,-6631.85,-7627.49,9551.91
1052097.5944,8743.0,2781.2,-6778.53,5312.4,21354.11,-6550.84,-7497.98,9595.49
1052097.5984,8761.69,2858.97,-6734.99,5307.63,21377.9,-6567.29,-7379.63,9555.72
1052097.6024,8785.87,2911.14,-6703.09,5327.32,21373.99,-6614.02,-7415.15,9530.31
1052097.6064,8774.42,2838.85,-6740.43,5331.23,21333.46,-6633.14,-7608.56,9553.48
1052097.6104,8748.44,2782.97,-6784.63,5301.91,21343.19,-6564.67,-7534.6,9593.15
1052097.6144,8753.49,2845.43,-6751.73,5297.71,21362.69,-6580.88,-7403.66,9545.85
1052097.6184,8760.36,2897.98,-6722.88,5302.95,21365.65,-6628.8,-7392.79,9507.47
1052097.6224,8758.5,2838.37,-6750.78,5304.43,21333.89,-6645.16,-7587.62,9542.42
1052097.6264,8746.34,2775.91,-6787.35,5294.75,21332.17,-6581.59,-7575.7,9585.29
1052097.6304,8750.25,2830.79,-6759.45,5297.95,21363.59,-6581.97,-7427.5,9541.23
1052097.6344,8757.07,2883.63,-6734.47,5299.14,21370.6,-6621.41,-7384.49,9500.17
1052097.6384,8757.74,2849.77,-6742.14,5315.59,21333.89,-6650.4,-7583.19,9524.06
1052097.6424,8763.03,2794.41,-6771.14,5319.31,21348.34,-6577.35,-7584.14,9598.45
1052097.6464,8760.5,2831.98,-6761.84,5309.49,21373.47,-6553.75,-7435.66,9584.09
1052097.6504,8778.81,2909.85,-6716.68,5319.12,21379.85,-6604.53,-7373.76,9515.43
1052097.6544,8778.0,2887.77,-6724.45,5318.98,21341.9,-6653.64,-7543.04,9510.95
1052097.6584,8762.31,2807.43,-6767.32,5311.87,21332.27,-6605.24,-7616.62,9576.99
1052097.6624,8763.31,2820.73,-6762.17,5310.11,21361.31,-6556.23,-7455.35,9583.62
1052097.6663,8777.67,2902.79,-6715.92,5322.27,21378.23,-6594.52,-7377.43,9535.17
1052097.6703,8773.8,2896.45,-6717.21,5326.89,21349.1,-6651.26,-7506.66,9512.47
1052097.6743,8763.98,2811.0,-6758.45,5322.5,21325.73,-6622.65,-7631.02,9561.02
1052097.6783,8758.21,2805.57,-6759.98,5314.02,21357.4,-6555.75,-7479.14,9582.43
1052097.6823,8770.8,2883.01,-6720.21,5315.35,21367.84,-6594.94,-7384.3,9527.35
1052097.6863,8774.81,2896.45,-6719.83,5313.06,21344.47,-6643.92,-7469.08,9501.6
1052097.6903,8757.16,2816.34,-6762.27,5311.39,21318.87,-6630.66,-7631.97,9547.04
1052097.6943,8757.97,2794.46,-6777.19,5305.96,21348.86,-6551.74,-7512.76,9593.15
1052097.6983,8768.08,2869.89,-6736.95,5312.82,21369.51,-6582.36,-7394.08,9536.41
1052097.7023,8775.57,2909.04,-6713.53,5321.07,21362.26,-6621.17,-7429.51,9518.15
1052097.7063,8770.8,2840.47,-6750.25,5320.41,21324.92,-6633.04,-7616.81,9549.95
1052097.7103,8764.22,2793.26,-6776.43,5315.35,21342.76,-6563.24,-7529.12,9592.2
1052097.7143,8770.94,2859.21,-6738.57,5315.11,21372.94,-6559.09,-7384.49,9570.65
1052097.7183,8792.59,2929.16,-6695.32,5338.76,21391.78,-6593.75,-7356.5,9536.41
1052097.7223,8777.29,2862.26,-6734.85,5326.65,21327.36,-6643.11,-7594.06,9529.31
1052097.7263,8755.11,2783.92,-6784.63,5301.67,21317.87,-6587.36,-7583.81,9570.31
1052097.7303,8763.08,2839.8,-6753.87,5304.05,21349.91,-6572.06,-7426.93,9552.67
1052097.7343,8767.89,2903.65,-6722.93,5307.82,21357.11,-6616.83,-7386.73,9510.66
1052097.7383,8766.22,2862.36,-6743.15,5306.01,21324.54,-6654.26,-7558.54,9513.62
1052097.7423,8748.29,2786.26,-6782.25,5295.71,21310.09,-6599.38,-7600.74,9573.75
1052097.7463,8764.08,2835.51,-6751.59,5309.58,21352.01,-6549.69,-7429.55,9590.2
1052097.7503,8785.2,2916.43,-6709.77,5322.27,21367.93,-6588.89,-7361.13,9547.38
1052097.7543,8761.45,2883.58,-6729.17,5314.68,21324.06,-6650.16,-7530.26,9521.2
1052097.7583,8756.35,2800.27,-6771.66,5306.1,21314.34,-6613.21,-7608.75,9559.54
1052097.7623,8759.17,2811.86,-6770.95,5297.71,21346.14,-6560.61,-7451.25,9575.27
1052097.7663,8771.56,2891.21,-6724.93,5309.49,21367.08,-6600.95,-7366.71,9524.92
1052097.7703,8768.7,2887.06,-6728.27,5310.58,21338.75,-6652.83,-7489.01,9503.79
1052097.7743,8753.83,2802.09,-6772.85,5302.33,21313.72,-6627.99,-7624.58,9556.29
1052097.7783,8753.11,2797.89,-6771.14,5308.29,21344.9,-6564.47,-7474.47,9583.38
1052097.7823,8769.27,2881.81,-6724.31,5321.26,21369.13,-6591.99,-7363.22,9541.56
1052097.7863,8755.59,2886.44,-6735.42,5302.81,21348.67,-6641.48,-7446.0,9513.81
1052097.7903,8733.66,2794.31,-6792.26,5275.97,21315.0,-6633.85,-7616.14,9554.91
1052097.7943,8742.86,2782.68,-6781.44,5305.43,21343.19,-6553.89,-7484.48,9606.65
1052097.7983,8762.55,2870.51,-6719.83,5342.87,21374.37,-6565.05,-7349.97,9576.46
1052097.8023,8762.41,2906.85,-6701.8,5348.4,21363.88,-6624.46,-7393.27,9534.17
1052097.8063,8723.93,2811.86,-6758.98,5330.9,21318.15,-6649.97,-7590.49,9554.77
1052097.8103,8712.34,2764.99,-6779.34,5336.19,21339.23,-6577.11,-7505.13,9590.77
1052097.8143,8714.58,2828.17,-6748.63,5336.43,21344.0,-6589.51,-7405.19,9546.09
1052097.8183,8715.06,2877.62,-6724.74,5346.3,21335.75,-6647.3,-7417.87,9497.31
1052097.8223,8724.6,2840.09,-6732.08,5371.81,21302.94,-6661.99,-7605.79,9527.97
1052097.8263,8734.89,2798.75,-6742.29,5398.18,21328.26,-6566.72,-7568.36,9609.61
1052097.8303,8725.45,2842.09,-6723.93,5389.4,21356.01,-6557.7,-7413.96,9580.14
1052097.8343,8717.01,2896.93,-6699.85,5381.2,21367.31,-6613.21,-7370.47,9523.92
1052097.8383,8714.15,2853.54,-6727.51,5376.05,21338.89,-6641.67,-7546.0,9541.56
1052097.8423,8708.95,2787.4,-6757.4,5380.3,21341.52,-6576.49,-7576.66,9609.22
1052097.8463,8710.58,2822.83,-6739.14,5379.82,21366.93,-6547.74,-7414.53,9601.31
1052097.8503,8719.97,2895.5,-6698.66,5387.5,21375.18,-6589.08,-7354.31,9549.62
1052097.8543,8706.67,2866.51,-6718.02,5384.45,21335.6,-6644.77,-7515.48,9526.92
1052097.8582,8691.6,2779.44,-6769.99,5370.62,21317.39,-6612.3,-7600.64,9577.75
1052097.8622,8687.97,2792.07,-6762.74,5361.37,21345.76,-6563.71,-7444.43,9589.1
1052097.8662,8693.74,2862.36,-6728.6,5355.45,21355.54,-6602.15,-7359.12,9533.41
1052097.8702,8698.13,2861.17,-6728.89,5361.22,21333.41,-6638.38,-7474.28,9527.26
1052097.8742,8683.63,2775.86,-6767.56,5361.75,21308.71,-6614.35,-7614.42,9575.89
1052097.8782,8680.39,2769.04,-6771.14,5359.6,21345.09,-6547.45,-7464.41,9599.4
1052097.8822,8695.6,2852.58,-6722.98,5372.67,21371.13,-6577.54,-7357.84,9555.01
1052097.8862,8706.76,2879.0,-6706.14,5385.02,21360.92,-6615.97,-7433.03,9542.47
1052097.8902,8700.42,2804.14,-6746.87,5380.44,21339.47,-6608.92,-7590.63,9580.52
1052097.8942,8695.22,2776.86,-6760.93,5377.91,21368.08,-6536.87,-7461.88,9612.75
1052097.8982,8702.71,2853.63,-6717.06,5385.92,21391.35,-6557.66,-7334.38,9564.88
1052097.9022,8720.54,2904.08,-6693.6,5389.5,21389.68,-6612.83,-7360.51,9520.1
1052097.9062,8699.23,2820.83,-6743.77,5366.14,21322.21,-6636.43,-7612.04,9548.0
1052097.9102,8690.98,2769.42,-6773.85,5356.22,21332.22,-6556.08,-7539.85,9603.02
1052097.9142,8696.75,2833.46,-6738.14,5359.17,21355.3,-6569.67,-7404.28,9556.91
1052097.9182,8712.29,2897.45,-6702.38,5374.77,21352.72,-6622.27,-7406.04,9510.85
1052097.9222,8702.47,2835.42,-6737.42,5374.19,21313.48,-6642.06,-7594.78,9535.08
1052097.9262,8675.86,2760.89,-6783.53,5360.79,21317.48,-6569.96,-7565.59,9598.54
1052097.9302,8687.21,2819.73,-6748.3,5365.66,21357.97,-6545.78,-7404.61,9593.87
1052097.9342,8701.61,2894.69,-6706.91,5373.53,21369.13,-6592.61,-7360.36,9535.93
1052097.9382,8712.67,2869.42,-6716.78,5385.4,21348.0,-6615.97,-7539.42,9557.68
1052097.9422,8684.21,2777.0,-6770.85,5367.57,21335.18,-6571.1,-7574.85,9600.74
1052097.9462,8679.25,2803.14,-6762.41,5360.17,21358.06,-6559.09,-7423.69,9575.75
1052097.9502,8691.6,2879.91,-6725.07,5359.41,21379.0,-6591.18,-7347.3,9532.17
1052097.9542,8696.65,2864.84,-6729.7,5362.08,21355.49,-6630.23,-7503.56,9532.6
1052097.9582,8680.01,2777.29,-6776.29,5352.45,21334.08,-6596.9,-7592.54,9584.52
1052097.9622,8682.59,2792.88,-6767.7,5352.74,21367.22,-6546.83,-7433.08,9600.16
1052097.9662,8691.6,2866.27,-6731.51,5354.98,21379.9,-6585.79,-7339.43,9543.56
1052097.9702,8680.92,2858.02,-6735.9,5353.93,21347.81,-6638.1,-7465.65,9525.92
1052097.9742,8660.89,2769.9,-6785.82,5338.1,21321.73,-6615.88,-7599.69,9574.18
1052097.9782,8664.08,2766.56,-6788.02,5339.77,21348.72,-6543.88,-7456.49,9606.36
1052097.9822,8683.11,2855.25,-6738.85,5351.97,21375.9,-6551.98,-7343.87,9584.0
1052097.9861,8670.47,2859.02,-6741.29,5347.87,21334.94,-6634.62,-7448.53,9522.49
1052097.9901,8676.63,2793.74,-6770.09,5352.4,21318.53,-6632.38,-7596.59,9554.77
1052097.9941,8672.72,2765.99,-6786.44,5340.86,21349.1,-6559.75,-7465.89,9586.62
1052097.9981,8674.57,2835.66,-6747.44,5344.06,21353.91,-6578.49,-7367.8,9548.81
1052098.0021,8677.72,2872.13,-6728.98,5345.77,21347.57,-6631.76,-7400.8,9516.81
1052098.0061,8675.53,2804.18,-6762.98,5349.21,21312.72,-6643.49,-7593.06,9540.23
1052098.0101,8675.96,2761.32,-6781.58,5354.45,21334.03,-6557.08,-7521.73,9604.74
1052098.0141,8682.54,2827.6,-6749.44,5352.93,21360.92,-6564.0,-7375.19,9569.46
1052098.0181,8692.69,2885.68,-6722.26,5353.5,21365.41,-6615.93,-7366.9,9520.01
1052098.0221,8685.54,2831.7,-6744.0,5358.84,21330.22,-6635.76,-7554.72,9543.71
1052098.0261,8672.62,2762.22,-6784.06,5350.26,21331.27,-6570.96,-7537.84,9597.87
1052098.0301,8675.24,2812.86,-6757.12,5350.07,21362.64,-6553.36,-7380.87,9578.66
1052098.0341,8689.83,2883.48,-6716.3,5358.6,21372.61,-6594.99,-7340.77,9533.55
1052098.0381,8680.39,2840.57,-6739.57,5358.03,21336.7,-6631.14,-7513.24,9539.18
1052098.0421,8662.42,2757.45,-6786.11,5347.3,21328.74,-6578.35,-7553.77,9596.78
1052098.0461,8661.22,2786.78,-6776.57,5337.95,21361.07,-6545.93,-7389.88,9595.3
1052098.0501,8668.52,2857.21,-6743.62,5335.47,21370.84,-6590.8,-7329.23,9546.23
1052098.0541,8675.39,2842.09,-6746.63,5346.58,21342.9,-6617.12,-7479.62,9559.58
1052098.0581,8663.18,2763.22,-6781.91,5346.58,21327.45,-6568.77,-7572.75,9624.29
1052098.0621,8659.65,2777.15,-6775.81,5343.58,21358.64,-6528.33,-7407.19,9620.81
1052098.0661,8674.81,2854.63,-6741.19,5347.68,21376.99,-6575.87,-7326.7,9554.39
1052098.0701,8683.01,2858.21,-6741.24,5346.44,21348.91,-6624.7,-7447.05,9534.55
1052098.0741,8665.71,2773.48,-6783.53,5340.0,21322.92,-6613.83,-7583.24,9565.78
1052098.0781,8659.94,2764.99,-6784.82,5342.44,21337.27,-6567.1,-7466.79,9562.21
1052098.0821,8675.24,2846.19,-6741.95,5350.3,21363.21,-6587.89,-7352.59,9531.69
1052098.0861,8679.44,2868.13,-6735.71,5347.16,21336.84,-6640.48,-7434.23,9508.99
1052098.0901,8680.39,2798.89,-6767.61,5352.97,21303.61,-6642.15,-7606.55,9544.18
1052098.0941,8664.61,2757.26,-6795.03,5339.67,21332.31,-6563.86,-7478.91,9587.81
1052098.0981,8679.53,2838.71,-6750.2,5342.82,21361.35,-6577.44,-7354.4,9556.58
1052098.1021,8701.23,2897.45,-6711.82,5362.42,21367.31,-6612.35,-7379.49,9541.08
1052098.1061,8670.47,2803.04,-6769.04,5341.67,21310.95,-6646.73,-7588.39,9545.66
1052098.1101,8657.12,2748.59,-6797.17,5341.2,21342.09,-6560.47,-7481.58,9606.41
1052098.114,8677.44,2824.97,-6750.39,5357.31,21383.76,-6556.61,-7318.45,9588.24
1052098.118,8694.7,2887.44,-6716.92,5367.09,21384.19,-6592.32,-7317.5,9574.56
1052098.122,8687.78,2831.98,-6739.14,5364.08,21328.17,-6624.65,-7538.51,9585.43
1052098.126,8684.83,2773.57,-6756.69,5374.0,21337.99,-6574.44,-7489.16,9584.95
1052098.13,8700.23,2838.33,-6714.63,5389.74,21364.79,-6566.1,-7346.3,9560.49
1052098.134,8727.12,2924.39,-6664.85,5408.96,21350.53,-6619.69,-7349.21,9509.99
1052098.138,8732.99,2896.4,-6666.71,5427.74,21315.96,-6648.26,-7520.34,9524.63
1052098.142,8719.16,2825.02,-6695.8,5441.57,21317.06,-6587.74,-7547.71,9585.95
1052098.146,8739.66,2875.76,-6662.23,5460.22,21355.68,-6551.46,-7386.88,9584.09
1052098.15,8761.36,2952.86,-6623.03,5461.26,21358.25,-6607.01,-7337.05,9524.44
1052098.154,8804.47,2969.69,-6607.87,5477.95,21318.01,-6661.89,-7504.65,9509.99
1052098.158,8815.24,2913.71,-6621.89,5500.13,21312.05,-6617.64,-7586.67,9568.69
1052098.162,8841.18,2953.48,-6587.12,5534.32,21357.59,-6553.27,-7424.55,9591.06
1052098.166,8861.97,3047.75,-6520.61,5562.74,21372.75,-6588.46,-7351.97,9538.79
1052098.17,8880.81,3072.17,-6500.67,5581.57,21353.06,-6631.66,-7478.05,9528.97
1052098.174,8868.6,2987.39,-6550.98,5562.35,21305.09,-6635.14,-7647.18,9552.38
1052098.178,8905.79,3013.28,-6530.62,5581.19,21336.7,-6569.34,-7518.86,9583.57
1052098.182,8949.85,3119.28,-6464.01,5602.93,21369.98,-6586.65,-7417.63,9547.9
1052098.186,8967.83,3155.47,-6439.02,5614.09,21355.06,-6633.09,-7516.81,9526.25
1052098.19,8973.79,3092.0,-6460.72,5627.3,21317.91,-6629.75,-7711.22,9568.26
1052098.194,8985.23,3079.37,-6461.57,5634.12,21351.86,-6542.4,-7599.21,9621.14
1052098.198,8994.29,3153.04,-6416.7,5640.98,21375.8,-6562.52,-7497.12,9575.7
1052098.202,9017.13,3204.63,-6392.72,5643.7,21352.91,-6631.38,-7571.41,9523.92
1052098.206,9028.48,3150.75,-6417.56,5642.61,21314.67,-6646.49,-7774.64,9548.71
1052098.21,9028.67,3107.26,-6446.12,5626.82,21333.51,-6568.34,-7706.74,9599.21
1052098.214,9045.75,3173.64,-6415.03,5618.86,21362.26,-6574.06,-7594.92,9565.16
1052098.218,9059.57,3232.43,-6387.57,5616.95,21359.45,-6633.33,-7629.06,9520.58
1052098.222,9057.48,3181.6,-6416.13,5609.51,21321.68,-6657.84,-7831.29,9537.65
1052098.226,9066.25,3135.97,-6429.77,5623.68,21340.9,-6577.78,-7805.4,9605.46
1052098.23,9057.24,3174.88,-6409.6,5618.76,21360.11,-6576.54,-7681.42,9572.75
1052098.234,9048.08,3225.23,-6391.76,5601.69,21344.52,-6652.07,-7699.68,9503.84
1052098.238,9042.79,3194.05,-6395.15,5621.48,21321.97,-6676.01,-7877.59,9520.15
1052098.242,9020.71,3109.6,-6440.74,5609.89,21320.77,-6617.26,-7909.06,9581.81
1052098.246,9037.31,3155.28,-6419.52,5602.03,21352.72,-6581.12,-7759.48,9579.8
1052098.25,9045.84,3228.47,-6389.14,5592.3,21345.81,-6645.78,-7737.35,9507.04
1052098.254,9060.38,3224.28,-6386.66,5599.45,21314.19,-6687.12,-7902.53,9504.89
1052098.258,9031.54,3129.58,-6438.92,5581.62,21306.9,-6638.72,-7991.89,9571.51
1052098.262,8997.63,3112.89,-6462.91,5546.86,21313.86,-6610.73,-7870.29,9561.54
1052098.266,9025.62,3204.16,-6412.22,5558.21,21333.6,-6644.92,-7795.72,9518.43
1052098.27,9012.08,3190.71,-6431.1,5541.42,21295.12,-6705.05,-7938.72,9488.77
1052098.274,8993.44,3107.55,-6465.96,5549.38,21285.58,-6669.62,-8059.36,9548.57
1052098.278,8942.27,3056.67,-6512.21,5501.65,21297.36,-6622.65,-7922.03,9554.48
1052098.282,8927.06,3115.13,-6487.56,5485.2,21312.67,-6663.13,-7817.17,9498.98
1052098.286,8921.24,3134.2,-6470.73,5497.74,21300.41,-6710.58,-7877.92,9477.76
1052098.29,8886.43,3040.46,-6518.41,5485.2,21272.57,-6699.94,-8024.17,9523.35
1052098.294,8845.9,2978.09,-6572.06,5438.61,21293.31,-6632.95,-7872.3,9549.38
1052098.298,8831.07,3029.25,-6556.61,5417.68,21324.3,-6648.16,-7717.18,9512.62
1052098.302,8813.67,3045.46,-6557.04,5400.85,21323.64,-6691.79,-7723.19,9485.87
1052098.3059,8782.96,2955.39,-6616.31,5372.48,21292.21,-6698.7,-7885.93,9517.43
1052098.3099,8757.5,2887.06,-6670.9,5334.81,21317.77,-6608.53,-7750.23,9573.84
1052098.3139,8723.07,2910.57,-6671.76,5304.81,21326.78,-6626.18,-7590.87,9525.54
1052098.3179,8715.58,2951.34,-6658.32,5295.8,21315.77,-6682.25,-7568.46,9484.44
1052098.3219,8698.51,2890.4,-6697.04,5288.32,21288.06,-6689.6,-7711.17,9522.25
1052098.3259,8668.85,2806.57,-6747.44,5275.3,21291.45,-6609.54,-7642.46,9581.61
1052098.3299,8659.27,2837.23,-6741.72,5258.37,21322.63,-6596.66,-7458.93,9563.11
1052098.3339,8666.47,2894.69,-6719.4,5252.98,21326.21,-6653.88,-7409.95,9516.14
1052098.3379,8614.4,2804.42,-6799.41,5189.61,21258.07,-6723.07,-7616.28,9489.2
1052098.3419,8574.49,2699.71,-6869.84,5158.81,21261.65,-6649.92,-7626.96,9550.1
1052098.3459,8562.61,2710.87,-6875.09,5141.07,21292.36,-6612.35,-7445.91,9549.19
1052098.3499,8576.35,2779.63,-6845.81,5138.4,21316.48,-6651.12,-7363.75,9510.28
1052098.3539,8568.29,2750.92,-6866.74,5132.2,21288.97,-6695.94,-7503.94,9505.18
1052098.3579,8555.03,2666.95,-6910.04,5131.91,21286.3,-6636.48,-7562.69,9573.75
1052098.3619,8552.6,2672.91,-6908.32,5129.67,21314.29,-6587.65,-7381.2,9581.28
1052098.3659,8555.41,2738.48,-6885.34,5119.9,21312.91,-6643.01,-7303.86,9526.44
1052098.3699,8562.52,2741.67,-6884.91,5118.8,21292.83,-6697.04,-7410.96,9500.17
1052098.3739,8544.26,2655.41,-6928.4,5114.51,21273.62,-6677.44,-7524.78,9528.69
1052098.3779,8537.58,2643.2,-6939.7,5109.26,21299.98,-6604.39,-7349.97,9555.15
1052098.3819,8547.97,2714.87,-6905.84,5104.16,21309.76,-6650.4,-7245.88,9503.75
1052098.3859,8566.33,2746.73,-6889.25,5113.03,21296.07,-6701.28,-7315.97,9481.86
1052098.3899,8547.26,2660.47,-6939.36,5100.97,21267.61,-6688.93,-7489.21,9523.35
1052098.3939,8536.53,2625.32,-6962.4,5089.76,21292.4,-6604.39,-7354.02,9567.21
1052098.3979,8551.46,2699.38,-6921.48,5099.3,21316.96,-6623.08,-7217.93,9530.07
1052098.4019,8571.2,2751.35,-6891.63,5114.84,21320.01,-6661.23,-7246.83,9510.9
1052098.4059,8533.19,2655.98,-6952.0,5090.0,21272.09,-6675.1,-7460.4,9534.55
1052098.4099,8511.35,2592.99,-6990.91,5076.31,21292.02,-6583.17,-7372.57,9590.25
1052098.4139,8515.88,2648.88,-6962.44,5073.55,21315.62,-6594.32,-7231.09,9552.05
1052098.4179,8528.76,2703.71,-6933.83,5078.75,21315.58,-6657.74,-7243.35,9506.27
1052098.4219,8527.95,2654.46,-6958.25,5082.04,21292.21,-6673.67,-7447.15,9533.55
1052098.4259,8492.76,2565.19,-7015.18,5056.91,21293.83,-6606.39,-7428.03,9578.18
1052098.4299,8512.4,2625.37,-6984.57,5063.68,21330.03,-6592.47,-7265.43,9559.68
1052098.4338,8531.14,2699.76,-6946.52,5072.4,21322.21,-6668.38,-7256.13,9496.88
1052098.4378,8512.31,2648.83,-6976.65,5061.05,21267.37,-6719.49,-7468.99,9487.68
1052098.4418,8494.9,2571.11,-7017.14,5055.48,21280.58,-6647.21,-7501.32,9555.67
1052098.4458,8529.47,2632.57,-6972.65,5080.18,21338.89,-6590.61,-7309.77,9574.84
1052098.4498,8535.1,2698.61,-6942.7,5074.45,21324.73,-6671.24,-7292.32,9498.98
1052098.4538,8524.09,2673.29,-6958.44,5071.97,21283.53,-6728.7,-7482.48,9481.0
1052098.4578,8503.96,2587.84,-6998.73,5071.88,21273.66,-6672.53,-7582.38,9546.33
1052098.4618,8516.88,2612.3,-6984.33,5075.84,21317.06,-6605.01,-7408.19,9569.26
1052098.4658,8520.56,2679.78,-6955.48,5069.07,21313.48,-6678.2,-7362.51,9490.4
1052098.4698,8530.05,2690.12,-6944.61,5082.85,21309.52,-6711.34,-7478.43,9490.87
1052098.4738,8499.05,2592.61,-6998.35,5070.21,21283.77,-6679.49,-7641.17,9543.28
1052098.4778,8478.31,2564.76,-7023.62,5047.13,21292.5,-6619.03,-7515.15,9558.2
1052098.4818,8496.43,2645.87,-6977.85,5051.71,21312.14,-6655.41,-7400.23,9507.32
1052098.4858,8504.34,2669.1,-6970.88,5046.99,21295.84,-6707.43,-7475.95,9482.34
1052098.4898,8484.08,2581.41,-7024.34,5032.21,21267.08,-6692.55,-7674.22,9529.26
1052098.4938,8473.78,2546.74,-7042.65,5028.06,21300.8,-6603.34,-7551.53,9581.28
1052098.4978,8492.85,2625.89,-6991.1,5048.18,21323.3,-6632.19,-7418.73,9530.16
1052098.5018,8493.52,2658.65,-6974.27,5052.9,21310.0,-6697.61,-7470.42,9484.44
1052098.5058,8450.56,2558.33,-7033.92,5032.11,21263.41,-6728.13,-7719.85,9501.08
1052098.5098,8424.47,2492.9,-7073.78,5015.76,21297.93,-6625.22,-7634.69,9578.94
1052098.5138,8427.14,2553.37,-7045.65,5015.28,21324.4,-6630.8,-7488.3,9544.18
1052098.5178,8444.64,2614.45,-7014.32,5021.67,21325.78,-6702.95,-7478.09,9475.52
1052098.5218,8382.23,2502.39,-7104.73,4959.06,21246.72,-6773.66,-7738.83,9453.01
1052098.5258,8353.09,2418.57,-7160.52,4932.88,21240.43,-6697.61,-7729.67,9515.33
1052098.5298,8381.37,2487.56,-7114.46,4952.62,21290.4,-6657.17,-7525.87,9517.38
1052098.5338,8392.0,2555.13,-7083.7,4950.71,21296.55,-6717.73,-7481.29,9460.4
1052098.5378,8388.71,2520.66,-7101.11,4953.67,21260.55,-6748.87,-7679.61,9474.23
1052098.5418,8393.34,2463.48,-7115.32,4975.99,21271.61,-6659.6,-7720.28,9560.3
1052098.5458,8398.49,2499.72,-7090.66,4984.9,21317.06,-6601.19,-7523.97,9583.67
1052098.5498,8420.42,2584.6,-7040.98,4996.92,21336.51,-6653.6,-7440.09,9518.1
1052098.5538,8403.35,2551.17,-7065.3,4977.85,21283.2,-6736.71,-7644.7,9468.51
1052098.5578,8378.89,2458.29,-7114.94,4970.27,21266.94,-6708.38,-7770.06,9512.85
1052098.5617,8383.08,2472.78,-7106.16,4973.46,21304.56,-6638.96,-7591.53,9544.18
1052098.5657,8400.73,2555.66,-7061.15,4981.57,21315.2,-6669.67,-7492.21,9498.74
1052098.5697,8405.64,2562.14,-7058.57,4984.71,21289.54,-6730.65,-7619.81,9465.5
1052098.5737,8382.75,2469.49,-7106.07,4977.75,21273.0,-6708.67,-7798.48,9522.63
1052098.5777,8368.59,2449.66,-7121.18,4967.26,21295.17,-6627.08,-7672.36,9575.56
1052098.5817,8392.05,2536.11,-7077.41,4970.12,21316.2,-6640.05,-7538.61,9552.05
1052098.5857,8408.83,2571.49,-7056.67,4981.18,21294.64,-6718.59,-7617.19,9471.66
1052098.5897,8394.58,2493.43,-7089.23,4989.43,21263.94,-6734.32,-7838.63,9488.06
1052098.5937,8395.63,2470.83,-7091.76,5001.21,21311.05,-6626.85,-7706.17,9584.33
1052098.5977,8400.49,2540.11,-7057.62,4999.11,21330.31,-6612.06,-7563.26,9616.85
1052098.6017,8413.17,2585.32,-7035.45,5001.74,21307.28,-6677.1,-7613.99,9554.43
1052098.6057,8408.02,2521.18,-7065.96,4999.92,21252.25,-6759.74,-7892.32,9446.15
1052098.6097,8372.98,2448.75,-7111.65,4977.75,21257.45,-6703.62,-7857.04,9486.96
1052098.6137,8376.84,2508.64,-7083.42,4973.56,21339.75,-6641.01,-7576.51,9549.43
1052098.6177,8393.91,2571.39,-7045.84,4984.05,21333.17,-6683.21,-7575.61,9522.2
1052098.6217,8385.56,2517.65,-7073.74,4985.91,21248.39,-6759.93,-7915.02,9452.63
1052098.6257,8366.82,2440.74,-7115.79,4979.99,21232.8,-6735.85,-7962.85,9443.57
1052098.6297,8383.04,2505.35,-7079.65,4985.86,21271.8,-6715.49,-7759.62,9420.97
1052098.6337,8402.54,2583.46,-7040.45,4991.25,21290.88,-6754.02,-7667.73,9386.97
1052098.6377,8402.4,2550.27,-7054.85,4996.87,21250.11,-6799.22,-7892.56,9395.31
1052098.6417,8399.34,2477.69,-7085.66,5007.08,21251.25,-6743.34,-7967.19,9479.86
1052098.6457,8408.26,2513.12,-7064.87,5010.46,21292.02,-6689.6,-7755.8,9493.07
1052098.6497,8423.52,2596.43,-7020.09,5017.81,21306.23,-6715.87,-7642.32,9448.1
1052098.6537,8426.48,2585.75,-7025.29,5026.01,21278.53,-6752.3,-7802.25,9459.16
1052098.6577,8394.53,2480.65,-7086.8,5004.64,21247.82,-6731.08,-7966.81,9525.59
1052098.6617,8402.63,2500.2,-7069.87,5010.75,21297.98,-6649.3,-7760.76,9581.14
1052098.6657,8426.86,2594.33,-7018.61,5020.43,21331.6,-6663.85,-7602.74,9549.57
1052098.6697,8417.18,2587.03,-7031.35,5011.03,21295.6,-6740.24,-7731.06,9491.11
1052098.6737,8402.35,2496.58,-7076.36,5007.7,21256.07,-6756.07,-7951.88,9521.91
1052098.6777,8394.15,2483.46,-7080.65,5003.36,21288.21,-6680.58,-7799.2,9575.27
1052098.6817,8439.3,2601.53,-6999.92,5043.17,21359.02,-6643.06,-7586.19,9578.66
1052098.6857,8404.45,2586.6,-7029.87,5000.69,21321.59,-6691.84,-7659.15,9565.4
1052098.6897,8395.82,2498.63,-7089.95,4976.85,21272.85,-6695.84,-7907.34,9658.72
1052098.6937,8418.85,2488.76,-7089.81,4984.19,21367.46,-6567.38,-7676.55,9792.85
1052098.6977,8435.92,2565.81,-7048.18,4982.47,21403.17,-6557.85,-7463.65,9769.54
1052098.7017,8463.15,2622.41,-7017.33,4990.96,21305.85,-6667.95,-7617.76,9608.99
1052098.7057,8491.04,2582.03,-7029.68,5012.66,21265.46,-6703.33,-7868.77,9613.42
1052098.7097,8463.43,2506.54,-7086.37,4972.89,21265.99,-6672.34,-7832.86,9623.34
1052098.7137,8450.65,2549.03,-7078.22,4941.99,21275.19,-6716.44,-7640.08,9477.09
1052098.7177,8464.39,2614.69,-7049.7,4936.17,21282.15,-6749.58,-7556.96,9410.76
1052098.7217,8463.34,2564.1,-7068.11,4941.32,21243.15,-6790.59,-7795.81,9449.24
1052098.7257,8456.47,2501.44,-7087.37,4957.15,21250.06,-6737.28,-7811.93,9518.58
1052098.7297,8495.14,2585.46,-7022.1,4997.59,21320.15,-6670.19,-7561.88,9554.53
1052098.7337,8501.91,2654.03,-6992.53,4991.06,21330.65,-6683.64,-7443.14,9522.87
1052098.7377,8476.78,2595.57,-7034.02,4968.5,21274.0,-6741.95,-7682.61,9523.11
1052098.7417,8476.83,2528.95,-7057.43,4981.18,21280.48,-6692.27,-7765.29,9606.89
1052098.7457,8494.81,2574.4,-7028.25,4990.48,21333.32,-6621.6,-7532.22,9635.97
1052098.7497,8479.88,2627.28,-7019.38,4959.63,21328.4,-6654.31,-7411.19,9577.8
1052098.7536,8479.12,2610.25,-7030.58,4962.64,21291.5,-6703.19,-7593.68,9575.99
1052098.7576,8463.29,2520.42,-7077.55,4958.53,21270.47,-6695.7,-7767.01,9636.36
1052098.7616,8465.39,2535.77,-7065.11,4960.39,21314.96,-6630.95,-7568.03,9661.39
1052098.7656,8484.41,2626.23,-7013.89,4970.03,21344.14,-6639.77,-7404.61,9615.37
1052098.7696,8498.24,2641.25,-6999.35,4989.67,21333.6,-6676.87,-7523.92,9610.61
1052098.7736,8479.74,2546.64,-7048.08,4985.48,21287.16,-6698.28,-7770.25,9649.28
1052098.7776,8440.26,2497.24,-7090.33,4944.9,21289.88,-6669.57,-7664.82,9650.9
1052098.7816,8459.95,2584.65,-7044.13,4947.14,21318.77,-6668.19,-7489.01,9610.08
1052098.7856,8473.06,2617.5,-7026.86,4952.34,21313.86,-6703.9,-7553.2,9587.58
1052098.7896,8450.32,2523.66,-7080.89,4939.18,21264.36,-6745.01,-7835.44,9610.75
1052098.7936,8446.98,2493.14,-7096.58,4941.18,21291.21,-6684.73,-7750.37,9654.86
1052098.7976,8485.37,2595.81,-7033.02,4966.97,21349.81,-6649.16,-7530.74,9640.5
1052098.8016,8480.79,2630.81,-7024.1,4955.86,21331.03,-6694.99,-7546.14,9590.01
1052098.8056,8458.66,2550.17,-7067.68,4948.0,21275.81,-6742.34,-7830.53,9607.7
1052098.8096,8445.5,2490.23,-7099.49,4941.65,21290.21,-6688.4,-7805.92,9663.49
1052098.8136,8463.0,2565.81,-7056.19,4947.71,21334.22,-6658.13,-7581.95,9640.27
1052098.8176,8490.04,2643.16,-7009.7,4963.73,21350.1,-6675.91,-7510.85,9605.22
1052098.8216,8473.68,2576.54,-7045.17,4957.53,21292.78,-6726.84,-7781.13,9614.99
1052098.8256,8451.89,2499.91,-7085.04,4955.01,21287.54,-6693.51,-7843.4,9660.96
1052098.8296,8445.79,2540.35,-7071.31,4937.6,21317.68,-6665.61,-7644.51,9638.07
1052098.8336,8465.67,2618.22,-7033.49,4942.51,21337.27,-6682.35,-7545.71,9598.69
1052098.8376,8475.4,2591.9,-7039.17,4960.73,21309.19,-6723.88,-7778.98,9613.32
1052098.8416,8441.4,2488.04,-7097.1,4943.42,21276.76,-6721.02,-7928.28,9646.85
1052098.8456,8434.96,2510.36,-7088.28,4933.88,21315.15,-6672.62,-7726.05,9643.46
1052098.8496,8451.51,2592.47,-7047.99,4936.41,21338.04,-6690.41,-7609.7,9597.59
1052098.8536,8447.84,2577.26,-7057.86,4937.79,21307.52,-6741.62,-7794.0,9586.86
1052098.8576,8424.33,2477.69,-7110.69,4931.21,21278.77,-6746.34,-7978.92,9628.77
1052098.8616,8436.68,2498.91,-7097.63,4937.94,21323.35,-6679.2,-7784.89,9652.52
1052098.8656,8453.66,2585.46,-7054.23,4938.22,21350.53,-6686.5,-7622.53,9607.27
1052098.8696,8451.27,2585.27,-7059.1,4934.17,21311.48,-6750.11,-7748.08,9572.46
1052098.8736,8438.02,2498.39,-7095.67,4939.6,21275.09,-6760.5,-7963.99,9614.13
1052098.8776,8425.57,2479.74,-7110.74,4927.06,21306.42,-6696.03,-7804.25,9641.36
1052098.8815,8444.12,2568.15,-7063.34,4929.83,21345.9,-6683.64,-7596.92,9608.75
1052098.8855,8452.7,2597.95,-7047.46,4932.31,21333.32,-6714.96,-7622.53,9587.67
1052098.8895,8435.58,2509.4,-7095.48,4927.54,21287.21,-6742.34,-7851.22,9615.9
1052098.8935,8428.15,2473.59,-7117.13,4921.53,21317.77,-6667.14,-7712.46,9662.82
1052098.8975,8454.04,2568.15,-7061.53,4935.22,21365.12,-6635.43,-7467.22,9641.7
1052098.9015,8476.02,2629.33,-7028.01,4947.57,21364.36,-6657.74,-7425.64,9616.57
1052098.9055,8455.9,2547.88,-7073.93,4934.93,21302.13,-6697.66,-7661.82,9634.07
1052098.9095,8443.45,2493.72,-7102.39,4929.73,21315.29,-6632.66,-7582.28,9686.14
1052098.9135,8453.99,2562.57,-7065.96,4929.35,21359.16,-6605.2,-7335.62,9661.82
1052098.9175,8479.64,2636.43,-7027.48,4939.22,21371.65,-6625.61,-7248.64,9624.91
1052098.9215,8476.54,2584.41,-7052.28,4942.08,21329.83,-6663.08,-7463.79,9643.84
1052098.9255,8456.04,2503.59,-7094.81,4932.07,21326.97,-6620.17,-7465.22,9694.86
1052098.9295,8469.2,2559.42,-7064.01,4936.03,21363.88,-6589.7,-7231.19,9676.98
1052098.9335,8496.38,2648.07,-7014.85,4952.0,21383.0,-6606.77,-7117.94,9639.88
1052098.9375,8474.11,2595.28,-7052.18,4934.26,21322.97,-6675.1,-7331.8,9619.38
1052098.9415,8459.76,2511.12,-7101.87,4923.58,21313.91,-6649.3,-7406.52,9670.64
1052098.9455,8464.0,2541.4,-7088.76,4920.82,21355.77,-6602.86,-7186.13,9671.98
1052098.9495,8490.61,2635.77,-7035.64,4934.98,21384.96,-6607.72,-7036.5,9636.78
1052098.9535,8476.02,2605.34,-7058.19,4924.68,21336.22,-6670.33,-7206.39,9614.9
1052098.9575,8455.52,2509.31,-7108.26,4917.43,21313.38,-6657.27,-7350.49,9664.06
1052098.9615,8454.04,2518.08,-7104.02,4914.86,21347.0,-6599.9,-7162.62,9678.22
1052098.9655,8481.55,2617.36,-7048.42,4929.02,21372.85,-6617.12,-7027.96,9635.16
1052098.9695,8473.92,2612.54,-7059.86,4915.86,21331.36,-6686.88,-7180.55,9598.69
1052098.9735,8464.43,2528.24,-7098.01,4923.53,21302.42,-6698.42,-7407.38,9642.75
1052098.9775,8466.24,2518.56,-7098.15,4930.83,21338.89,-6633.43,-7279.78,9678.98
1052098.9815,8466.2,2584.98,-7062.48,4930.78,21344.24,-6674.86,-7183.08,9608.7
1052098.9855,8467.96,2605.44,-7052.28,4928.16,21320.54,-6744.53,-7297.76,9566.69
1052098.9895,8447.93,2510.83,-7108.21,4913.04,21270.8,-6788.21,-7592.68,9593.77
1052098.9935,8441.78,2473.12,-7130.67,4910.66,21291.97,-6732.89,-7536.94,9630.2
1052098.9975,8450.89,2541.26,-7095.05,4909.42,21312.62,-6756.78,-7421.49,9576.51
1052099.0015,8468.25,2594.42,-7062.48,4920.67,21313.91,-6807.14,-7470.66,9543.13
1052099.0055,8458.9,2521.52,-7102.87,4919.43,21264.94,-6855.58,-7768.11,9565.78
1052099.0094,8440.88,2459.81,-7139.73,4912.28,21272.23,-6807.66,-7767.73,9612.42
1052099.0134,8445.17,2518.37,-7108.31,4908.51,21293.74,-6830.65,-7644.18,9552.38
1052099.0174,8465.2,2584.89,-7072.64,4915.95,21298.89,-6870.56,-7649.52,9517.0
1052099.0214,8451.51,2518.84,-7110.64,4909.61,21240.62,-6938.65,-7944.68,9515.38
1052099.0254,8437.87,2446.32,-7145.74,4908.28,21247.34,-6898.5,-7987.88,9563.59
1052099.0294,8451.75,2503.2,-7108.74,4921.01,21298.36,-6858.21,-7806.54,9557.63
1052099.0334,8443.55,2561.47,-7085.75,4908.85,21281.15,-6893.44,-7769.06,9493.02
1052099.0374,8430.43,2519.8,-7108.55,4902.32,21247.63,-6936.41,-7987.93,9501.27
1052099.0414,8392.29,2414.18,-7169.1,4882.53,21241.76,-6905.37,-8090.74,9555.39
1052099.0454,8400.3,2442.22,-7155.85,4877.19,21274.62,-6866.79,-7941.82,9552.77
1052099.0494,8458.04,2555.85,-7092.72,4900.03,21294.5,-6878.57,-7856.42,9513.19
1052099.0534,8493.14,2570.77,-7075.31,4923.92,21284.3,-6906.8,-8015.68,9524.06
1052099.0574,8442.36,2440.6,-7166.29,4870.13,21227.03,-6927.92,-8190.39,9529.4
1052099.0614,8447.36,2447.89,-7163.38,4859.4,21270.95,-6857.35,-7992.13,9550.14
1052099.0654,8506.11,2568.96,-7089.33,4883.53,21310.57,-6846.33,-7835.96,9526.68
1052099.0694,8551.31,2610.59,-7058.72,4906.32,21302.04,-6864.6,-7938.82,9541.08
1052099.0734,8500.0,2480.79,-7149.55,4851.96,21227.51,-6917.19,-8161.4,9522.25
1052099.0774,8509.73,2476.74,-7158.23,4836.66,21279.39,-6824.16,-7970.76,9580.8
1052099.0814,8527.33,2562.62,-7112.84,4837.47,21298.74,-6841.56,-7824.52,9521.34
1052099.0854,8523.37,2579.83,-7109.6,4827.45,21267.7,-6890.15,-7894.23,9489.63
1052099.0894,8495.9,2484.08,-7168.48,4809.14,21224.93,-6911.47,-8090.93,9514.71
1052099.0934,8497.29,2458.14,-7178.16,4816.53,21263.03,-6829.36,-7954.22,9567.79
1052099.0974,8516.6,2544.45,-7127.1,4825.4,21279.43,-6830.84,-7796.62,9515.24
1052099.1014,8537.01,2603.05,-7096.1,4833.37,21277.76,-6851.24,-7788.04,9494.59
1052099.1054,8525.32,2534.44,-7127.57,4839.85,21249.01,-6871.99,-7981.11,9519.63
1052099.1094,8505.3,2469.02,-7167.58,4827.36,21254.69,-6821.68,-7916.4,9560.2
1052099.1134,8519.56,2538.92,-7129.72,4828.41,21300.46,-6797.17,-7704.83,9534.26
1052099.1174,8531.38,2605.3,-7092.14,4833.65,21309.62,-6811.1,-7637.5,9501.46
1052099.1214,8533.15,2562.19,-7111.98,4839.28,21282.48,-6824.59,-7808.64,9532.79
1052099.1254,8501.67,2471.26,-7172.06,4812.15,21274.52,-6785.35,-7799.34,9577.28
1052099.1294,8516.46,2528.81,-7141.88,4816.2,21333.74,-6719.92,-7558.73,9599.97
1052099.1334,8541.49,2617.36,-7090.04,4831.03,21371.08,-6708.24,-7435.18,9590.2
1052099.1374,8541.3,2585.17,-7106.64,4834.13,21336.08,-6745.1,-7604.55,9591.82
1052099.1414,8497.19,2470.16,-7180.83,4806.57,21260.6,-6768.32,-7763.43,9596.06
1052099.1454,8522.89,2521.94,-7140.4,4833.03,21285.25,-6718.02,-7613.99,9607.79
1052099.1494,8554.94,2623.27,-7071.26,4863.41,21320.06,-6714.15,-7494.59,9566.55
1052099.1534,8562.61,2620.6,-7069.02,4877.76,21296.03,-6736.23,-7632.45,9605.79
1052099.1574,8517.27,2498.77,-7151.84,4836.61,21241.72,-6755.78,-7791.42,9628.2
1052099.1614,8523.08,2514.08,-7139.92,4839.52,21283.77,-6732.61,-7610.32,9562.92
1052099.1654,8547.93,2611.07,-7082.03,4856.25,21320.15,-6749.2,-7478.76,9516.67
1052099.1694,8536.67,2607.2,-7092.19,4844.0,21287.35,-6795.69,-7591.77,9496.02
1052099.1734,8518.36,2516.75,-7139.4,4838.09,21250.06,-6809.62,-7781.98,9540.23
1052099.1774,8531.05,2517.13,-7130.58,4852.01,21290.78,-6736.61,-7631.26,9592.96
1052099.1814,8541.59,2599.1,-7085.32,4855.06,21314.58,-6739.9,-7509.28,9559.2
1052099.1854,8571.29,2653.17,-7043.31,4886.01,21329.5,-6747.1,-7548.19,9565.5
1052099.1894,8531.95,2545.64,-7110.6,4861.31,21274.0,-6790.16,-7776.79,9582.47
1052099.1934,8509.21,2495.19,-7146.55,4843.38,21291.54,-6735.13,-7676.65,9621.14
1052099.1974,8537.72,2586.75,-7092.38,4859.73,21334.46,-6720.5,-7529.55,9597.87
1052099.2013,8531.0,2620.32,-7080.03,4852.77,21324.78,-6747.25,-7546.0,9578.9
1052099.2053,8520.41,2549.41,-7114.03,4856.92,21274.71,-6785.97,-7796.0,9611.13
1052099.2093,8506.92,2486.37,-7148.51,4846.57,21280.15,-6750.16,-7757.43,9643.32
1052099.2133,8540.73,2574.06,-7089.47,4871.27,21347.48,-6687.21,-7575.85,9692.15
1052099.2173,8553.94,2643.01,-7050.32,4879.76,21350.77,-6669.81,-7590.1,9765.58
1052099.2213,8544.11,2587.99,-7077.79,4882.86,21271.71,-6754.16,-7889.75,9715.18
1052099.2253,8505.58,2488.8,-7140.45,4859.5,21243.57,-6813.24,-7926.56,9574.7
1052099.2293,8496.62,2519.42,-7130.1,4844.24,21260.36,-6821.49,-7796.24,9517.38
1052099.2333,8522.56,2605.25,-7079.27,4856.92,21274.14,-6845.33,-7753.33,9485.44
1052099.2373,8525.66,2575.59,-7091.86,4862.07,21243.77,-6894.68,-7944.97,9503.99
1052099.2413,8519.17,2498.77,-7131.29,4868.46,21240.76,-6866.55,-8021.07,9577.28
1052099.2453,8528.42,2538.01,-7107.64,4876.04,21286.3,-6813.24,-7857.56,9603.98
1052099.2493,8520.18,2599.72,-7080.94,4864.07,21282.68,-6851.2,-7823.28,9545.52
1052099.2533,8515.55,2581.84,-7086.33,4871.18,21257.93,-6901.03,-8008.48,9544.09
1052099.2573,8501.01,2489.76,-7137.97,4865.07,21230.13,-6903.84,-8176.18,9599.97
1052099.2613,8527.47,2521.23,-7107.54,4891.83,21287.59,-6835.18,-8031.46,9650.52
1052099.2653,8516.41,2584.65,-7077.79,4878.71,21287.11,-6867.22,-7974.82,9590.58
1052099.2693,8488.7,2562.52,-7101.63,4853.63,21233.28,-6945.85,-8164.36,9543.47
1052099.2733,8484.03,2478.5,-7142.16,4859.11,21209.19,-6969.98,-8384.04,9588.29
1052099.2773,8495.28,2475.55,-7139.06,4873.66,21248.39,-6922.29,-8282.66,9624.29
1052099.2813,8517.93,2566.24,-7082.89,4887.01,21274.86,-6928.64,-8183.43,9580.18
1052099.2853,8506.35,2581.79,-7083.23,4870.7,21240.05,-6977.85,-8258.2,9538.22
1052099.2893,8482.41,2494.57,-7135.87,4858.45,21202.23,-6989.91,-8420.66,9571.93
1052099.2933,8497.19,2478.65,-7140.4,4870.75,21260.79,-6896.69,-8238.36,9641.98
1052099.2973,8512.31,2561.52,-7093.14,4876.42,21302.65,-6853.77,-8024.41,9623.19
1052099.3013,8577.87,2668.29,-7013.08,4932.45,21360.3,-6809.38,-7928.47,9648.13
1052099.3053,8478.31,2513.6,-7132.82,4847.48,21243.48,-6904.32,-8159.35,9599.64
1052099.3093,8446.65,2435.4,-7181.98,4825.78,21240.76,-6855.97,-8074.38,9640.27
1052099.3133,8468.3,2512.07,-7134.3,4840.8,21285.06,-6807.8,-7863.28,9637.98
1052099.3173,8502.91,2602.96,-7074.6,4870.46,21313.81,-6799.79,-7790.18,9629.92
1052099.3213,8486.7,2545.31,-7114.17,4856.16,21271.76,-6834.89,-7961.94,9644.65
1052099.3253,8463.77,2465.63,-7159.85,4847.43,21272.61,-6792.07,-7945.59,9704.35
1052099.3292,8481.93,2522.66,-7125.47,4854.25,21306.23,-6749.87,-7756.57,9705.45
1052099.3332,8514.83,2618.74,-7066.06,4875.04,21333.41,-6741.95,-7653.05,9677.6
1052099.3372,8518.27,2592.33,-7077.74,4881.14,21302.89,-6775.38,-7800.72,9679.65
1052099.3412,8467.87,2475.07,-7155.04,4845.81,21263.89,-6779.77,-7875.63,9702.64
1052099.3452,8465.24,2498.67,-7141.88,4845.81,21306.33,-6726.89,-7692.05,9714.32
1052099.3492,8474.88,2576.3,-7106.11,4837.51,21319.2,-6732.23,-7600.4,9677.51
1052099.3532,8476.83,2567.43,-7112.27,4840.57,21286.82,-6768.42,-7736.16,9668.11
1052099.3572,8485.13,2502.01,-7134.58,4866.93,21296.55,-6742.81,-7820.46,9735.06
1052099.3612,8473.11,2495.43,-7144.83,4851.06,21309.0,-6704.38,-7677.75,9738.73
1052099.3652,8486.65,2578.31,-7098.63,4851.72,21320.39,-6712.53,-7568.41,9690.81
1052099.3692,8502.44,2601.43,-7079.55,4867.65,21300.84,-6742.86,-7654.29,9677.46
1052099.3732,8487.27,2509.4,-7133.34,4857.59,21274.04,-6749.68,-7813.74,9724.14
1052099.3772,8490.52,2502.3,-7134.63,4862.21,21317.39,-6663.85,-7646.61,9783.75
1052099.3812,8539.87,2622.41,-7050.52,4901.03,21374.8,-6646.73,-7481.0,9743.41
1052099.3852,8522.85,2631.47,-7055.0,4878.47,21343.66,-6708.0,-7544.14,9685.23
1052099.3892,8477.64,2521.71,-7128.38,4849.15,21284.54,-6749.92,-7750.04,9702.02
1052099.3932,8458.57,2472.93,-7161.19,4839.37,21299.51,-6695.46,-7634.93,9739.92
1052099.3972,8482.55,2560.57,-7107.45,4855.3,21328.59,-6678.3,-7482.62,9713.08
1052099.4012,8510.16,2626.23,-7067.68,4868.17,21332.36,-6707.86,-7488.44,9681.46
1052099.4052,8502.53,2563.57,-7097.77,4873.66,21307.14,-6727.74,-7650.04,9710.22
1052099.4092,8467.82,2479.55,-7154.7,4845.05,21291.31,-6696.94,-7601.41,9737.97
1052099.4132,8491.99,2554.51,-7112.5,4852.2,21324.16,-6671.52,-7431.79,9721.61
1052099.4172,8513.17,2629.71,-7067.78,4862.79,21342.09,-6671.62,-7374.81,9704.97
1052099.4212,8511.45,2585.46,-7089.42,4867.89,21319.2,-6688.31,-7529.83,9730.44
1052099.4252,8482.41,2496.96,-7144.79,4850.29,21318.1,-6652.21,-7500.36,9777.88
1052099.4292,8484.41,2540.45,-7126.95,4837.8,21348.77,-6608.44,-7321.88,9781.74
1052099.4332,8509.92,2627.04,-7080.56,4844.19,21359.35,-6625.13,-7253.98,9731.91
1052099.4372,8513.07,2601.1,-7088.71,4856.92,21330.17,-6667.42,-7412.39,9716.89
1052099.4412,8504.44,2517.89,-7133.91,4859.59,21328.74,-6637.43,-7460.31,9771.06
1052099.4452,8499.43,2537.63,-7129.57,4846.24,21348.62,-6603.91,-7308.91,9766.1
1052099.4492,8507.3,2615.36,-7088.28,4846.05,21345.28,-6633.57,-7252.55,9709.5
1052099.4532,8524.09,2622.8,-7081.37,4853.44,21335.75,-6659.94,-7367.71,9715.94
1052099.4571,8502.15,2526.9,-7137.87,4844.62,21318.2,-6649.11,-7459.31,9758.52
1052099.4611,8510.88,2543.74,-7125.95,4853.3,21329.79,-6599.47,-7327.65,9771.35
1052099.4651,8525.47,2627.8,-7076.17,4861.64,21363.5,-6602.38,-7223.18,9728.15
1052099.4691,8551.74,2655.84,-7063.15,4861.5,21355.63,-6632.14,-7297.85,9716.37
1052099.4731,8559.7,2592.13,-7089.28,4872.23,21324.68,-6636.19,-7436.99,9759.57
1052099.4771,8585.41,2606.01,-7068.68,4896.07,21348.91,-6562.85,-7302.38,9810.45
1052099.4811,8640.0,2726.65,-6990.48,4923.3,21366.17,-6555.61,-7186.75,9781.65
1052099.4851,8687.35,2797.7,-6936.98,4953.72,21360.21,-6599.38,-7217.36,9727.29
1052099.4891,8701.52,2743.2,-6959.77,4965.83,21315.24,-6640.44,-7417.39,9735.49
1052099.4931,8735.37,2743.05,-6946.14,4993.11,21341.09,-6574.87,-7297.85,9791.47
1052099.4971,8796.65,2863.17,-6856.16,5041.22,21389.68,-6550.03,-7135.82,9778.93
1052099.5011,8833.36,2938.41,-6803.37,5066.78,21378.42,-6599.09,-7168.96,9725.48
1052099.5051,8828.31,2880.67,-6823.87,5080.75,21328.26,-6648.97,-7383.68,9732.77
1052099.5091,8821.15,2822.35,-6858.97,5071.83,21322.87,-6610.59,-7349.3,9770.49
1052099.5131,8847.52,2885.01,-6819.01,5074.17,21341.85,-6596.47,-7221.32,9741.4
1052099.5171,8864.31,2961.35,-6768.85,5096.63,21353.63,-6625.75,-7222.65,9705.93
1052099.5211,8861.73,2929.69,-6776.95,5113.6,21333.36,-6658.17,-7428.27,9736.25
1052099.5251,8849.38,2851.15,-6827.64,5103.49,21312.19,-6632.61,-7460.88,9785.8
1052099.5291,8861.45,2902.03,-6797.17,5109.69,21351.05,-6594.52,-7310.49,9786.18
1052099.5331,8853.87,2964.26,-6763.32,5100.11,21360.78,-6629.99,-7276.06,9725.0
1052099.5371,8848.86,2924.82,-6790.07,5091.24,21308.62,-6692.7,-7475.04,9696.91
1052099.5411,8833.08,2839.37,-6833.89,5091.38,21320.63,-6650.4,-7503.8,9769.87
1052099.5451,8818.58,2857.21,-6824.83,5085.33,21362.12,-6598.28,-7321.55,9779.03
1052099.5491,8831.79,2936.7,-6783.44,5079.32,21363.55,-6615.88,-7296.42,9747.89
1052099.5531,8821.35,2918.43,-6794.17,5081.8,21326.5,-6646.92,-7476.66,9764.24
1052099.5571,8825.4,2846.53,-6815.15,5112.12,21315.86,-6659.51,-7585.48,9767.2
1052099.5611,8852.77,2876.57,-6782.01,5141.5,21366.55,-6611.73,-7405.52,9759.47
1052099.5651,8804.61,2899.03,-6796.74,5080.46,21339.23,-6674.48,-7360.75,9662.44
1052099.5691,8776.86,2883.96,-6818.01,5058.72,21305.33,-6716.25,-7476.76,9644.37
1052099.5731,8762.41,2801.04,-6861.07,5058.0,21302.51,-6686.88,-7610.99,9722.9
1052099.5771,8724.98,2749.01,-6904.56,5021.0,21315.72,-6631.47,-7470.61,9749.6
1052099.5811,8716.35,2809.72,-6880.14,5001.12,21324.54,-6644.2,-7348.87,9695.15
1052099.5851,8721.45,2847.1,-6862.69,5001.02,21321.97,-6668.76,-7367.71,9675.27
1052099.5891,8728.17,2785.59,-6887.72,5019.14,21315.86,-6654.36,-7500.79,9743.02
1052099.5931,8687.07,2712.54,-6940.7,4987.76,21314.53,-6602.1,-7385.25,9771.35
1052099.5971,8690.45,2780.63,-6903.51,4983.33,21338.27,-6598.23,-7243.11,9737.45
1052099.6011,8722.02,2851.82,-6857.54,5009.51,21360.45,-6612.83,-7235.19,9726.43
1052099.6051,8707.33,2779.58,-6899.55,5007.08,21325.54,-6638.58,-7425.6,9750.99
1052099.6091,8666.13,2690.74,-6962.25,4978.85,21327.26,-6588.32,-7355.45,9793.33
1052099.6131,8674.57,2750.73,-6929.16,4977.66,21359.35,-6568.91,-7192.61,9771.54
1052099.6171,8699.99,2826.5,-6882.86,4989.96,21369.89,-6596.61,-7182.5,9738.49
1052099.6211,8676.34,2761.65,-6924.58,4978.51,21320.58,-6645.63,-7395.79,9731.68
1052099.6251,8652.78,2678.54,-6971.07,4966.74,21319.34,-6583.6,-7379.01,9796.81
1052099.6291,8679.82,2745.25,-6921.82,4993.44,21377.9,-6519.89,-7206.06,9824.9
1052099.6331,8673.29,2801.47,-6899.26,4978.09,21366.07,-6578.4,-7198.19,9753.04
1052099.6371,8660.27,2761.46,-6926.35,4961.87,21327.36,-6629.99,-7372.9,9736.25
1052099.6411,8654.79,2687.03,-6962.73,4972.6,21338.89,-6577.97,-7404.04,9799.15
1052099.6451,8651.5,2709.87,-6952.1,4969.36,21367.79,-6537.63,-7250.64,9792.9
1052099.649,8668.47,2794.08,-6909.32,4966.4,21383.96,-6557.08,-7180.26,9748.41
1052099.653,8654.64,2770.47,-6931.93,4950.71,21342.76,-6610.59,-7330.13,9727.53
1052099.657,8634.09,2677.73,-6983.71,4945.95,21330.31,-6586.03,-7421.11,9781.41
1052099.661,8630.13,2678.82,-6982.18,4943.04,21360.5,-6527.85,-7243.3,9802.15
1052099.665,8654.74,2770.81,-6924.11,4957.49,21381.76,-6538.2,-7131.01,9764.58
1052099.669,8660.13,2784.54,-6914.66,4962.35,21364.02,-6575.39,-7206.92,9744.88
1052099.673,8639.96,2691.56,-6970.07,4950.95,21340.37,-6570.63,-7331.71,9788.32
1052099.677,8631.85,2669.72,-6983.66,4949.14,21370.89,-6495.29,-7152.7,9830.86
1052099.681,8656.46,2763.56,-6928.3,4958.34,21401.03,-6485.08,-7005.93,9815.17
1052099.685,8672.72,2806.33,-6902.79,4968.36,21397.16,-6516.27,-7047.7,9800.53
1052099.689,8638.91,2705.38,-6970.36,4940.94,21343.9,-6561.61,-7233.76,9792.33
1052099.693,8636.62,2666.0,-6994.49,4932.07,21372.65,-6475.69,-7094.43,9855.46
1052099.697,8660.51,2751.92,-6939.22,4950.48,21408.23,-6458.14,-6944.42,9834.2
1052099.701,8666.99,2801.61,-6912.8,4951.95,21394.97,-6522.51,-6978.85,9763.67
1052099.705,8650.97,2731.66,-6954.34,4943.32,21365.88,-6540.16,-7163.95,9792.47
1052099.709,8609.92,2646.16,-7016.8,4907.66,21380.52,-6461.62,-7090.52,9863.04
1052099.713,8600.43,2688.46,-7002.07,4894.07,21385.96,-6466.25,-6966.69,9810.64
1052099.717,8683.35,2815.77,-6904.94,4961.4,21397.12,-6494.81,-6959.53,9777.59
1052099.721,8690.55,2776.53,-6920.86,4969.6,21361.78,-6516.41,-7132.58,9799.72
1052099.725,8663.94,2689.31,-6976.22,4953.19,21377.33,-6452.85,-7078.12,9849.6
1052099.729,8676.72,2741.05,-6942.23,4950.91,21405.37,-6417.85,-6896.07,9834.24
1052099.733,8701.75,2834.84,-6883.72,4960.49,21401.93,-6458.09,-6861.54,9784.13
1052099.737,8680.25,2793.5,-6914.0,4946.9,21354.44,-6506.49,-7020.57,9772.35
1052099.741,8664.18,2705.15,-6970.36,4932.59,21349.91,-6460.24,-7043.31,9835.67
1052099.745,8675.96,2732.56,-6953.34,4941.37,21383.53,-6412.22,-6852.82,9839.25
1052099.749,8705.14,2823.16,-6907.85,4949.86,21401.07,-6440.35,-6780.29,9801.58
1052099.753,8713.87,2821.02,-6903.7,4949.81,21372.37,-6481.12,-6908.51,9795.62
1052099.757,8696.7,2732.13,-6947.85,4949.28,21354.25,-6462.29,-6999.68,9842.78
1052099.761,8688.98,2729.42,-6947.71,4946.85,21385.15,-6409.46,-6837.42,9859.56
1052099.765,8693.98,2803.14,-6901.65,4947.23,21390.68,-6454.18,-6786.87,9799.96
1052099.769,8695.41,2805.38,-6903.55,4945.52,21370.7,-6510.88,-6911.47,9771.06
1052099.773,8662.08,2710.53,-6975.7,4919.15,21335.03,-6526.42,-7079.7,9797.53
1052099.7769,8659.89,2694.94,-6986.19,4917.53,21372.37,-6448.7,-6926.3,9855.8
1052099.7809,8683.63,2776.58,-6936.03,4930.12,21391.49,-6475.4,-6852.25,9800.48
1052099.7849,8690.79,2811.86,-6913.04,4937.74,21380.95,-6549.79,-6927.3,9731.68
1052099.7889,8668.23,2736.28,-6948.33,4934.93,21347.91,-6563.86,-7103.68,9770.35
1052099.7929,8650.64,2675.44,-6988.14,4917.24,21351.63,-6505.25,-7032.54,9813.74
1052099.7969,8674.96,2751.59,-6941.41,4923.68,21369.13,-6526.8,-6954.05,9773.45
1052099.8009,8690.79,2805.85,-6911.66,4926.25,21349.62,-6591.23,-7014.08,9719.28
1052099.8049,8676.43,2734.28,-6954.53,4921.15,21311.05,-6627.27,-7225.13,9736.73
1052099.8089,8653.69,2668.43,-6991.1,4922.3,21341.23,-6546.83,-7134.25,9805.63
1052099.8129,8676.05,2738.43,-6943.66,4938.03,21367.27,-6539.3,-7033.78,9791.18
1052099.8169,8700.51,2810.29,-6911.8,4942.13,21348.91,-6603.81,-7099.25,9732.53
1052099.8209,8689.4,2750.78,-6942.99,4936.17,21301.56,-6657.51,-7336.33,9731.53
1052099.8249,8664.32,2648.88,-6984.57,4932.17,21311.86,-6601.0,-7324.17,9789.75
1052099.8289,8668.76,2704.05,-6947.38,4951.1,21352.1,-6572.3,-7186.08,9784.6
1052099.8329,8696.22,2808.95,-6897.02,4957.58,21355.35,-6623.56,-7203.63,9738.73
1052099.8369,8698.13,2773.86,-6923.87,4948.86,21317.15,-6684.26,-7404.76,9728.62
1052099.8409,8679.49,2681.45,-6973.32,4941.85,21311.71,-6658.84,-7447.82,9757.62
1052099.8449,8674.67,2694.03,-6965.11,4934.45,21328.74,-6635.62,-7306.62,9737.78
1052099.8489,8714.63,2801.13,-6898.59,4956.58,21355.87,-6668.52,-7266.81,9702.64
1052099.8529,8706.09,2784.49,-6909.18,4948.04,21317.15,-6735.04,-7441.52,9682.28
1052099.8569,8678.72,2684.26,-6967.31,4942.75,21302.61,-6715.97,-7545.38,9730.15
1052099.8609,8677.53,2683.59,-6973.03,4937.74,21338.8,-6657.17,-7392.69,9752.89
1052099.8649,8697.8,2767.13,-6926.11,4942.75,21340.04,-6710.63,-7372.67,9689.24
1052099.8689,8700.18,2779.44,-6920.2,4944.94,21313.96,-6775.81,-7515.57,9658.05
1052099.8729,8685.07,2690.22,-6970.55,4941.23,21287.97,-6771.42,-7664.06,9696.91
1052099.8769,8675.43,2653.12,-6992.39,4929.11,21313.19,-6704.95,-7525.3,9730.53
1052099.8809,8697.8,2746.77,-6933.55,4947.81,21340.8,-6712.49,-7452.82,9711.55
1052099.8849,8691.36,2779.2,-6925.87,4939.13,21310.28,-6788.02,-7570.27,9654.24
1052099.8889,8684.49,2699.9,-6981.71,4922.34,21281.77,-6816.63,-7755.33,9663.68
1052099.8929,8665.13,2642.73,-7021.57,4904.37,21289.88,-6749.11,-7672.45,9715.37
1052099.8969,8671.67,2717.4,-6963.68,4921.77,21313.57,-6751.97,-7581.76,9684.8
1052099.9009,8682.68,2765.13,-6922.68,4934.22,21315.29,-6807.95,-7628.97,9633.16
1052099.9048,8679.44,2704.1,-6956.44,4932.83,21255.11,-6852.82,-7876.06,9630.4
1052099.9088,8675.1,2640.87,-7003.93,4916.57,21265.6,-6792.93,-7803.3,9671.59
1052099.9128,8692.69,2709.72,-6961.3,4926.83,21304.9,-6766.7,-7636.5,9662.2
1052099.9168,8712.91,2786.54,-6914.33,4947.04,21315.29,-6792.45,-7626.49,9637.4
1052099.9208,8707.1,2738.33,-6944.08,4938.17,21288.97,-6799.27,-7784.51,9671.16
1052099.9248,8681.92,2637.67,-7011.84,4918.05,21296.36,-6719.54,-7729.29,9732.92
1052099.9288,8679.68,2694.37,-6966.45,4941.7,21325.26,-6678.58,-7544.71,9717.42
1052099.9328,8704.81,2786.78,-6904.03,4954.91,21319.11,-6742.67,-7527.07,9640.74
1052099.9368,8703.61,2761.98,-6913.76,4956.2,21294.5,-6775.05,-7663.58,9644.89
1052099.9408,8697.22,2686.07,-6963.64,4947.42,21300.94,-6701.9,-7652.57,9720.42
1052099.9448,8695.98,2704.14,-6958.1,4936.5,21327.64,-6645.82,-7476.57,9726.0
1052099.9488,8688.5,2762.37,-6919.05,4936.17,21338.75,-6684.97,-7438.61,9677.79
1052099.9528,8668.66,2744.72,-6934.36,4924.58,21316.2,-6720.02,-7562.45,9667.21
1052099.9568,8682.59,2685.5,-6979.94,4923.2,21298.74,-6683.97,-7646.28,9712.17
1052099.9608,8694.79,2695.85,-6977.85,4931.16,21324.73,-6622.36,-7467.65,9737.02
1052099.9648,8734.51,2800.66,-6901.79,4970.22,21365.55,-6621.65,-7366.71,9729.43
1052099.9688,8749.15,2824.69,-6887.2,4972.36,21359.4,-6643.34,-7450.63,9740.54
1052099.9728,8740.33,2737.67,-6937.74,4963.97,21343.04,-6629.18,-7554.34,9776.64
1052099.9768,8701.71,2684.4,-6977.27,4928.92,21332.55,-6600.57,-7413.82,9754.66
1052099.9808,8698.18,2752.02,-6930.69,4930.07,21329.74,-6647.21,-7365.9,9696.39
1052099.9848,8693.55,2767.56,-6912.52,4935.69,21314.43,-6707.96,-7453.39,9661.87
1052099.9888,8674.38,2683.26,-6967.83,4920.44,21286.01,-6705.19,-7608.46,9709.5
1052099.9928,8666.09,2640.72,-7001.21,4903.65,21320.92,-6620.84,-7464.65,9763.43
1052099.9968,8680.01,2715.73,-6962.63,4906.23,21339.85,-6643.49,-7366.66,9717.75
1052100.0008,8687.21,2765.32,-6948.19,4891.49,21317.44,-6712.25,-7442.67,9653.14
1052100.0048,8635.0,2668.95,-7008.12,4881.33,21278.53,-6745.29,-7629.82,9661.68
1052100.0088,8656.07,2639.96,-6983.85,4931.93,21305.61,-6659.65,-7522.15,9726.67
1052100.0128,8736.9,2736.76,-6924.44,4951.05,21338.8,-6637.86,-7379.25,9718.71
1052100.0168,8757.54,2825.59,-6883.0,4950.91,21351.67,-6673.29,-7378.63,9688.43
1052100.0208,8740.28,2769.14,-6898.02,4950.33,21318.49,-6700.52,-7555.44,9698.15
1052100.0248,8690.98,2657.8,-6959.49,4931.5,21316.67,-6636.0,-7524.68,9753.28
1052100.0288,8726.55,2729.99,-6919.34,4940.13,21356.63,-6595.14,-7350.25,9757.09
1052100.0327,8737.66,2803.14,-6895.97,4923.77,21347.24,-6645.11,-7339.43,9712.65
1052100.0367,8727.84,2764.32,-6933.07,4903.7,21329.41,-6662.89,-7465.98,9719.71
1052100.0407,8682.73,2656.22,-6969.64,4917.1,21340.66,-6605.86,-7430.17,9765.82
1052100.0447,8732.89,2715.4,-6912.33,4958.77,21383.19,-6529.05,-7193.95,9796.05
1052100.0487,8806.13,2841.71,-6826.97,4986.14,21376.95,-6559.23,-7152.51,9765.1
1052100.0527,8791.4,2825.07,-6840.8,4973.65,21370.08,-6556.32,-7234.67,9813.69
1052100.0567,8707.24,2666.14,-6965.45,4880.0,21361.54,-6546.93,-7260.9,9814.45
1052100.0607,8781.15,2725.89,-6951.48,4902.65,21372.99,-6509.78,-7104.3,9781.79
1052100.0647,8869.65,2796.94,-6822.16,4965.02,21340.37,-6583.02,-7086.71,9699.97
1052100.0687,8832.6,2768.33,-6870.13,4939.99,21327.07,-6614.78,-7188.46,9698.3
1052100.0727,8859.11,2817.35,-6798.7,5015.28,21320.87,-6594.66,-7289.36,9754.56
1052100.0767,8903.08,2857.3,-6770.85,5054.33,21357.97,-6511.5,-7111.31,9803.63
1052100.0807,8927.3,2918.15,-6751.35,5030.73,21350.39,-6555.75,-7074.45,9748.7
1052100.0847,8985.47,2967.31,-6714.73,4994.35,21338.42,-6607.72,-7179.31,9727.19
1052100.0887,9007.17,2883.01,-6764.84,4982.19,21313.0,-6615.88,-7344.25,9760.19
1052100.0927,9001.64,2829.12,-6776.86,5012.56,21318.3,-6544.88,-7217.46,9800.72
1052100.0967,9011.03,2888.11,-6705.81,5047.94,21346.24,-6557.32,-7130.58,9769.73
1052100.1007,9008.36,2912.0,-6695.46,5031.63,21329.79,-6615.64,-7195.43,9735.39
1052100.1047,9016.04,2828.6,-6747.44,5015.09,21297.74,-6636.19,-7353.4,9751.7
1052100.1087,8973.65,2689.03,-6790.88,5000.21,21330.65,-6538.68,-7217.55,9819.75
1052100.1127,9014.23,2778.53,-6733.61,5008.13,21345.43,-6532.24,-7091.67,9792.85
1052100.1167,9115.74,2955.34,-6670.24,5021.91,21338.27,-6581.35,-7108.02,9744.6
1052100.1207,9134.44,2920.2,-6687.45,5044.22,21320.01,-6600.67,-7238.58,9763.62
1052100.1247,9117.13,2821.4,-6736.33,5036.31,21340.09,-6520.46,-7136.77,9827.04
1052100.1287,9112.36,2841.14,-6716.06,5035.93,21373.89,-6483.65,-6968.5,9828.9
1052100.1327,9140.54,2918.53,-6653.12,5052.95,21382.24,-6526.52,-6963.83,9790.56
1052100.1367,9144.21,2870.13,-6691.55,5027.1,21327.64,-6601.67,-7145.83,9758.86
1052100.1407,9161.33,2798.61,-6723.26,5038.98,21344.71,-6535.48,-7114.7,9828.23
1052100.1447,9151.03,2803.61,-6725.74,5025.34,21356.39,-6509.97,-6975.89,9813.6
1052100.1487,9180.79,2877.14,-6679.87,5021.76,21346.95,-6585.55,-7015.32,9745.98
1052100.1527,9189.65,2865.74,-6671.81,5043.36,21319.11,-6646.49,-7187.27,9730.77
1052100.1567,9162.47,2765.94,-6716.92,5046.7,21314.53,-6613.06,-7239.77,9777.59
1052100.1606,9168.15,2763.32,-6728.22,5031.25,21330.12,-6574.54,-7096.91,9776.26
1052100.1646,9184.17,2831.36,-6687.02,5032.59,21318.15,-6649.07,-7147.74,9709.55
1052100.1686,9194.61,2849.48,-6689.64,5034.02,21291.5,-6725.5,-7327.7,9676.84
1052100.1726,9195.0,2774.29,-6734.42,5033.26,21289.73,-6698.18,-7427.03,9734.54
1052100.1766,9182.41,2740.57,-6747.34,5025.1,21321.01,-6625.51,-7272.34,9770.3
1052100.1806,9192.18,2813.15,-6685.26,5041.98,21319.53,-6682.78,-7283.59,9707.98
1052100.1846,9200.29,2843.48,-6664.94,5046.51,21297.41,-6759.74,-7445.57,9668.07
1052100.1886,9172.58,2748.06,-6725.17,5035.35,21275.57,-6763.75,-7594.44,9699.92
1052100.1926,9148.5,2684.36,-6766.65,5022.0,21308.23,-6670.81,-7451.25,9758.47
1052100.1966,9149.84,2740.24,-6725.79,5010.08,21321.25,-6694.08,-7404.38,9719.09
1052100.2006,9190.7,2807.38,-6687.59,5021.53,21316.44,-6753.64,-7498.84,9679.46
1052100.2046,9197.09,2768.56,-6727.89,5014.23,21292.16,-6757.74,-7630.21,9703.54
1052100.2086,9175.73,2714.4,-6754.02,5022.38,21315.15,-6649.49,-7484.63,9786.08
1052100.2126,9189.85,2758.5,-6713.2,5036.02,21336.03,-6643.39,-7384.97,9767.34
1052100.2166,9180.88,2798.51,-6687.59,5013.37,21322.68,-6723.88,-7443.91,9692.77
1052100.2206,9152.56,2762.13,-6735.75,5013.13,21293.31,-6772.95,-7578.09,9668.02
1052100.2246,9167.2,2696.66,-6779.62,5005.5,21289.88,-6683.87,-7519.01,9740.4
1052100.2286,9187.99,2745.68,-6734.94,5027.15,21321.54,-6647.16,-7368.76,9742.74
1052100.2326,9220.51,2839.28,-6663.85,5058.86,21341.71,-6688.5,-7379.49,9712.74
1052100.2366,9227.47,2822.73,-6662.32,5075.6,21321.73,-6715.49,-7519.44,9714.18
1052100.2406,9166.15,2709.2,-6741.81,5039.26,21301.37,-6664.13,-7489.16,9751.75
1052100.2446,9169.87,2727.22,-6730.6,5032.02,21327.69,-6603.62,-7320.12,9771.97
1052100.2486,9196.23,2804.95,-6692.03,5024.53,21330.07,-6673.19,-7353.26,9708.26
1052100.2526,9201.1,2801.94,-6692.98,5035.93,21318.87,-6714.06,-7482.15,9700.35
1052100.2566,9167.58,2702.28,-6753.87,5033.21,21306.71,-6672.53,-7516.48,9743.5
1052100.2606,9160.42,2698.37,-6761.69,5007.55,21321.01,-6618.5,-7353.83,9747.32
1052100.2646,9196.23,2796.55,-6703.66,5019.95,21314.81,-6678.92,-7391.79,9697.96
1052100.2686,9199.53,2791.55,-6693.98,5034.73,21292.59,-6746.53,-7550.15,9669.88
1052100.2726,9178.78,2713.87,-6752.78,5021.43,21290.59,-6718.92,-7620.19,9714.99
1052100.2766,9176.35,2699.09,-6771.85,5012.32,21325.07,-6631.9,-7432.03,9753.18
1052100.2806,9182.74,2766.13,-6707.76,5032.25,21320.87,-6694.27,-7450.3,9692.86
1052100.2846,9185.32,2801.94,-6685.31,5033.4,21305.95,-6771.14,-7577.28,9653.14
1052100.2886,9166.96,2715.92,-6736.57,5028.39,21286.2,-6770.66,-7691.62,9681.37
1052100.2926,9175.73,2684.4,-6758.07,5033.92,21317.29,-6662.18,-7515.48,9745.98
1052100.2966,9186.08,2756.79,-6717.06,5038.17,21315.62,-6697.66,-7495.4,9703.26
1052100.3006,9188.75,2799.32,-6684.11,5043.7,21284.58,-6788.45,-7630.16,9639.07
1052100.3046,9198.29,2747.58,-6716.3,5043.32,21275.24,-6789.64,-7757.24,9670.45
1052100.3086,9185.7,2683.35,-6752.92,5041.08,21310.71,-6678.82,-7594.11,9740.78
1052100.3126,9207.54,2752.07,-6699.52,5062.63,21333.36,-6675.53,-7527.97,9728.53
1052100.3166,9179.16,2790.5,-6684.35,5048.32,21287.49,-6790.11,-7689.91,9646.37
1052100.3206,9184.7,2750.78,-6727.17,5040.03,21265.41,-6811.29,-7857.18,9670.12
1052100.3246,9151.46,2646.88,-6798.41,5001.12,21279.58,-6733.28,-7759.48,9714.56
1052100.3286,9150.17,2673.58,-6768.56,5004.84,21306.95,-6716.87,-7620.19,9705.5
1052100.3326,9207.15,2800.85,-6721.59,5006.98,21279.15,-6826.93,-7721.81,9605.84
1052100.3366,9216.21,2783.54,-6715.39,5036.74,21245.1,-6864.74,-7892.61,9602.5
1052100.3406,9178.21,2678.49,-6754.54,5045.08,21261.03,-6779.15,-7816.55,9666.92
1052100.3446,9186.56,2700.85,-6742.53,5046.94,21296.03,-6719.16,-7638.65,9688.71
1052100.3486,9197.76,2770.76,-6703.76,5042.98,21295.98,-6779.62,-7665.11,9636.59
1052100.3525,9196.43,2766.66,-6710.82,5033.68,21261.98,-6835.41,-7830.91,9620.52
1052100.3565,9173.2,2679.83,-6763.32,5027.91,21267.99,-6769.28,-7830.48,9690.72
1052100.3605,9167.53,2674.96,-6776.14,5018.04,21286.49,-6708.1,-7653.43,9705.93
1052100.3645,9193.76,2761.08,-6721.26,5028.2,21283.87,-6778.67,-7695.63,9647.99
1052100.3685,9200.67,2780.29,-6709.91,5032.97,21259.45,-6847.29,-7855.32,9617.19
1052100.3725,9184.41,2695.08,-6755.54,5034.11,21252.3,-6809.71,-7915.55,9661.29
1052100.3765,9180.88,2671.29,-6769.51,5036.5,21290.26,-6713.49,-7717.23,9705.78
1052100.3805,9188.61,2745.58,-6729.94,5031.87,21286.73,-6766.03,-7727.43,9653.33
1052100.3845,9197.67,2775.72,-6715.01,5027.58,21265.7,-6835.75,-7864.95,9623.58
1052100.3885,9154.46,2674.39,-6771.18,5020.29,21244.91,-6836.8,-7970.0,9638.6
1052100.3925,9167.48,2655.08,-6778.67,5037.17,21300.27,-6711.1,-7767.2,9717.75
1052100.3965,9201.77,2748.01,-6726.08,5048.56,21306.71,-6750.78,-7737.11,9668.59
1052100.4005,9207.44,2795.65,-6708.72,5038.21,21271.71,-6844.52,-7869.29,9614.37
1052100.4045,9185.08,2721.93,-6758.36,5023.86,21262.51,-6814.15,-7970.81,9683.42
1052100.4085,9173.35,2656.65,-6793.83,5018.19,21293.07,-6701.23,-7802.77,9752.23
1052100.4125,9164.53,2688.65,-6768.56,5022.57,21288.45,-6745.01,-7747.7,9668.26
1052100.4165,9165.24,2762.75,-6727.98,5022.0,21254.26,-6847.1,-7856.27,9585.81
1052100.4205,9188.8,2741.96,-6741.67,5029.39,21234.99,-6876.56,-7972.48,9581.71
1052100.4245,9181.69,2670.81,-6786.25,5032.64,21271.23,-6763.22,-7828.95,9669.4
1052100.4285,9201.58,2722.45,-6743.57,5054.95,21308.62,-6719.92,-7677.03,9683.28
1052100.4325,9203.15,2785.68,-6708.43,5056.33,21288.97,-6800.94,-7749.42,9619.38
1052100.4365,9192.47,2761.03,-6723.98,5051.04,21272.76,-6830.6,-7876.02,9624.2
1052100.4405,9169.87,2672.62,-6777.48,5039.5,21291.16,-6745.86,-7811.59,9692.72
1052100.4445,9169.58,2685.4,-6768.61,5040.6,21312.76,-6692.74,-7648.99,9703.21
1052100.4485,9198.38,2774.53,-6715.16,5049.18,21307.71,-6749.68,-7681.7,9651.57
1052100.4525,9184.08,2757.93,-6750.25,5018.52,21264.7,-6812.14,-7833.05,9619.38
1052100.4565,9153.75,2675.44,-6791.16,5023.91,21274.14,-6754.35,-7823.8,9675.69
1052100.4605,9169.58,2677.58,-6780.43,5035.4,21310.0,-6678.49,-7621.86,9705.16
1052100.4645,9192.52,2763.41,-6724.45,5050.47,21296.69,-6745.48,-7660.15,9644.7
1052100.4685,9189.65,2779.39,-6718.97,5046.51,21270.47,-6820.44,-7819.42,9608.79
1052100.4725,9160.57,2683.54,-6783.01,5028.2,21262.6,-6790.69,-7877.4,9651.95
1052100.4765,9159.14,2668.52,-6799.98,5031.59,21307.42,-6687.83,-7663.92,9701.59
1052100.4804,9175.35,2743.44,-6754.59,5031.68,21301.65,-6746.58,-7680.46,9642.79
1052100.4844,9184.03,2780.2,-6731.94,5032.49,21277.14,-6828.64,-7828.57,9600.55
1052100.4884,9157.23,2702.47,-6782.25,5024.0,21259.69,-6818.82,-7929.09,9633.21
1052100.4924,9129.81,2632.9,-6823.54,5011.61,21283.77,-6728.08,-7752.23,9679.56
1052100.4964,9145.4,2689.74,-6788.06,5013.13,21283.15,-6771.42,-7743.36,9636.12
1052100.5004,9164.86,2767.94,-6754.02,5026.44,21261.27,-6858.64,-7891.23,9593.44
1052100.5044,9165.57,2726.65,-6776.29,5041.98,21247.44,-6866.55,-8022.36,9613.94
1052100.5084,9150.32,2660.51,-6819.87,5029.01,21284.2,-6762.36,-7853.56,9677.98
1052100.5124,9152.51,2704.53,-6795.41,5019.57,21290.5,-6776.05,-7775.93,9644.18
1052100.5164,9185.22,2791.79,-6730.03,5048.99,21275.67,-6846.52,-7891.75,9603.55
1052100.5204,9179.64,2750.87,-6753.35,5048.13,21253.64,-6860.64,-8024.31,9616.04
1052100.5244,9148.36,2663.33,-6811.14,5031.63,21271.18,-6767.7,-7902.24,9677.6
1052100.5284,9150.03,2698.04,-6794.02,5029.44,21290.45,-6743.72,-7768.11,9666.59
1052100.5324,9167.24,2775.38,-6747.58,5039.88,21275.71,-6822.4,-7833.1,9606.98
1052100.5364,9165.0,2754.74,-6762.79,5040.07,21253.21,-6853.39,-7954.69,9609.18
1052100.5404,9154.89,2679.35,-6808.14,5043.79,21278.05,-6755.16,-7858.13,9686.28
1052100.5444,9169.25,2711.44,-6785.54,5056.81,21313.38,-6690.55,-7669.88,9706.31
1052100.5484,9167.91,2777.62,-6750.68,5049.66,21282.29,-6779.72,-7726.48,9626.72
1052100.5524,9175.68,2782.97,-6749.96,5052.47,21265.94,-6823.64,-7843.21,9614.9
1052100.5564,9165.96,2707.2,-6794.98,5056.62,21277.43,-6754.26,-7810.93,9678.46
1052100.5604,9173.97,2708.29,-6798.7,5051.95,21310.95,-6673.91,-7606.32,9710.89
1052100.5644,9208.16,2806.71,-6739.71,5057.19,21312.48,-6726.89,-7629.2,9656.24
1052100.5684,9209.3,2828.41,-6735.66,5040.46,21295.03,-6787.16,-7767.87,9626.58
1052100.5724,9184.36,2740.67,-6794.07,5026.05,21293.31,-6743.96,-7809.83,9680.42
1052100.5764,9205.15,2739.91,-6779.77,5057.05,21334.79,-6636.72,-7600.59,9736.92
1052100.5804,9256.6,2857.02,-6689.98,5110.69,21313.15,-6705.28,-7627.2,9670.78
1052100.5844,9283.11,2919.05,-6647.4,5133.2,21278.96,-6798.51,-7777.6,9610.84
1052100.5884,9288.17,2870.8,-6671.43,5150.65,21270.23,-6782.72,-7870.01,9649.75
1052100.5924,9288.03,2838.66,-6686.78,5164.81,21292.12,-6689.79,-7693.15,9696.77
1052100.5964,9327.6,2945.09,-6597.81,5225.95,21304.9,-6709.43,-7651.76,9664.49
1052100.6004,9364.84,3037.02,-6534.91,5254.65,21297.03,-6780.01,-7757.47,9619.71
1052100.6044,9344.53,2982.19,-6563.66,5257.42,21270.47,-6789.26,-7869.67,9638.55
1052100.6083,9343.63,2943.47,-6578.54,5283.26,21306.9,-6674.86,-7682.28,9710.84
1052100.6123,9370.23,3026.91,-6512.12,5323.84,21327.5,-6660.84,-7566.64,9693.86
1052100.6163,9395.31,3115.61,-6455.23,5343.91,21312.86,-6730.56,-7636.26,9638.02
1052100.6203,9389.78,3087.95,-6467.01,5364.47,21293.69,-6744.15,-7736.25,9654.38
1052100.6243,9381.68,3033.69,-6491.33,5383.73,21324.35,-6634.52,-7580.23,9734.87
1052100.6283,9386.35,3084.14,-6451.37,5402.47,21351.53,-6586.65,-7399.66,9740.59
1052100.6323,9399.13,3167.82,-6399.73,5412.34,21340.85,-6646.2,-7425.45,9683.71
1052100.6363,9392.21,3152.04,-6401.49,5430.46,21332.55,-6640.96,-7484.77,9730.67
1052100.6403,9377.43,3084.14,-6433.92,5445.58,21365.55,-6496.29,-7345.39,9896.57
1052100.6443,9388.64,3118.66,-6414.22,5446.96,21455.24,-6398.25,-7009.08,9922.93
1052100.6483,9390.74,3190.37,-6371.12,5450.68,21515.18,-6430.01,-6854.96,9903.62
1052100.6523,9408.19,3217.89,-6342.65,5487.49,21473.27,-6383.8,-7033.87,10075.19
1052100.6563,9383.11,3138.97,-6394.05,5477.38,21432.21,-6369.07,-7049.37,10031.61
1052100.6603,9367.23,3139.02,-6392.29,5478.29,21474.79,-6350.37,-6720.16,9888.84
1052100.6643,9367.66,3219.65,-6344.27,5480.86,21402.22,-6447.32,-6803.56,9767.25
1052100.6683,9380.68,3257.56,-6321.86,5499.08,21367.36,-6522.27,-6902.79,9643.37
1052100.6723,9403.47,3216.6,-6336.36,5532.65,21323.25,-6510.69,-6962.73,9652.85
1052100.6763,9387.54,3192.38,-6342.55,5536.7,21358.11,-6410.65,-6662.37,9690.67
1052100.6803,9394.03,3270.29,-6297.88,5536.51,21386.77,-6396.82,-6543.92,9690.62
1052100.6843,9392.21,3310.97,-6273.84,5542.95,21412.42,-6358.1,-6523.23,9786.89
1052100.6883,9393.12,3260.61,-6296.59,5553.06,21401.07,-6345.51,-6557.18,9835.1
1052100.6923,9390.36,3222.94,-6318.76,5551.62,21416.14,-6281.09,-6348.66,9859.61
1052100.6963,9416.3,3311.68,-6257.87,5580.24,21466.26,-6240.23,-6199.69,9888.46
1052100.7003,9406.57,3355.07,-6242.37,5571.37,21476.89,-6250.43,-6221.72,9927.8
1052100.7043,9416.87,3314.97,-6269.26,5568.79,21465.35,-6253.29,-6318.67,9959.13
1052100.7083,9409.91,3256.23,-6304.74,5562.45,21476.89,-6202.32,-6189.78,9973.0
1052100.7123,9355.74,3256.85,-6317.28,5521.39,21417.81,-6263.3,-6172.28,9876.87
1052100.7163,9373.62,3325.18,-6279.99,5523.4,21404.94,-6318.24,-6266.88,9841.92
1052100.7203,9388.5,3304.62,-6289.44,5536.7,21408.66,-6321.24,-6403.83,9890.08
1052100.7243,9352.92,3206.87,-6359.43,5513.95,21403.65,-6279.09,-6355.0,9926.22
1052100.7283,9361.13,3239.06,-6341.74,5508.57,21419.91,-6259.11,-6257.01,9922.36
1052100.7323,9392.21,3336.57,-6270.31,5540.75,21440.89,-6310.37,-6314.37,9883.98
1052100.7362,9356.4,3291.7,-6301.64,5526.78,21397.31,-6378.51,-6509.83,9862.09
1052100.7402,9312.77,3182.79,-6365.78,5514.91,21393.87,-6332.88,-6525.28,9912.54
1052100.7442,9322.12,3200.48,-6361.77,5507.28,21424.49,-6288.53,-6396.2,9923.7
1052100.7482,9325.74,3261.28,-6345.75,5470.23,21400.31,-6376.36,-6480.74,9848.98
1052100.7522,9349.54,3283.74,-6325.63,5495.22,21393.21,-6417.37,-6641.1,9850.22
1052100.7562,9317.3,3183.89,-6390.33,5470.18,21384.77,-6392.58,-6706.14,9898.95
1052100.7602,9300.66,3161.14,-6415.7,5442.05,21394.59,-6345.7,-6576.3,9912.4
1052100.7642,9332.13,3254.56,-6356.57,5455.97,21393.44,-6402.4,-6616.83,9856.03
1052100.7682,9351.54,3286.31,-6337.12,5470.61,21374.13,-6467.34,-6773.23,9826.8
1052100.7722,9339.05,3205.63,-6384.61,5468.46,21364.31,-6450.32,-6877.71,9876.16
1052100.7762,9303.33,3149.32,-6436.16,5426.12,21371.65,-6394.24,-6746.01,9897.95
1052100.7802,9302.95,3211.88,-6396.96,5421.07,21367.22,-6447.75,-6754.07,9843.02
1052100.7842,9375.53,3314.02,-6306.6,5495.55,21400.17,-6472.06,-6833.6,9856.37
1052100.7882,9330.66,3208.78,-6382.08,5457.4,21338.37,-6507.73,-6985.24,9852.74
1052100.7922,9283.21,3123.0,-6453.71,5409.38,21356.97,-6432.58,-6840.9,9888.94
1052100.7962,9304.76,3196.86,-6407.55,5424.36,21379.43,-6442.98,-6782.96,9866.0
1052100.8002,9277.58,3211.83,-6411.31,5391.07,21311.38,-6569.43,-6947.71,9774.21
1052100.8042,9251.74,3138.69,-6462.53,5375.2,21303.23,-6570.01,-7080.98,9813.45
1052100.8082,9215.59,3047.99,-6527.85,5348.68,21327.93,-6484.32,-6963.3,9875.3
1052100.8122,9206.68,3077.08,-6518.98,5326.8,21342.33,-6514.03,-6885.05,9820.89
1052100.8162,9225.75,3146.31,-6481.22,5329.51,21348.38,-6580.54,-6982.61,9788.8
1052100.8202,9195.14,3081.13,-6526.09,5312.97,21327.12,-6601.76,-7144.17,9815.5
1052100.8242,9168.01,2986.05,-6596.28,5281.74,21345.67,-6535.1,-7075.6,9852.94
1052100.8282,9149.41,2997.64,-6600.19,5256.7,21343.47,-6518.32,-7021.67,9851.65
1052100.8322,9122.99,3032.26,-6598.9,5216.55,21300.03,-6630.28,-7172.78,9763.15
1052100.8362,9129.24,3020.24,-6610.16,5217.22,21300.13,-6669.14,-7301.76,9750.27
1052100.8402,9117.37,2940.32,-6652.45,5230.9,21330.65,-6582.79,-7248.93,9826.66
1052100.8442,9107.97,2952.62,-6641.96,5235.1,21349.0,-6538.44,-7117.03,9815.26
1052100.8482,9100.15,3018.19,-6605.48,5232.72,21307.47,-6631.23,-7244.83,9740.21
1052100.8522,9111.31,3028.92,-6606.39,5230.95,21273.9,-6693.08,-7411.62,9699.77
1052100.8562,9084.85,2931.4,-6673.15,5211.4,21267.46,-6658.75,-7450.68,9740.4
1052100.8602,9089.76,2934.27,-6665.23,5222.42,21334.32,-6560.99,-7242.68,9793.81
1052100.8641,9072.45,2984.43,-6641.91,5201.48,21295.07,-6645.78,-7302.62,9713.08
1052100.8681,9067.01,3000.26,-6632.9,5201.2,21273.28,-6712.25,-7434.7,9677.6
1052100.8721,9012.22,2886.53,-6711.53,5168.39,21251.82,-6701.76,-7518.96,9710.55
1052100.8761,9004.4,2851.53,-6746.72,5141.54,21297.08,-6610.49,-7321.64,9762.19
1052100.8801,9022.05,2929.97,-6696.27,5148.89,21310.76,-6651.59,-7314.68,9722.19
1052100.8841,8999.73,2948.9,-6692.6,5134.87,21279.62,-6731.27,-7446.39,9663.25
1052100.8881,8993.2,2888.58,-6723.12,5144.98,21289.88,-6698.28,-7535.08,9722.62
1052100.8921,8962.82,2819.59,-6775.24,5116.18,21311.43,-6606.53,-7370.52,9770.68
1052100.8961,8969.98,2875.47,-6744.29,5109.55,21310.62,-6637.43,-7350.64,9724.05
1052100.9001,8980.85,2933.07,-6707.0,5120.61,21309.47,-6700.09,-7453.16,9685.71
1052100.9041,8960.3,2869.13,-6743.62,5125.62,21289.78,-6704.14,-7594.54,9718.42
1052100.9081,8936.12,2795.27,-6789.78,5122.09,21311.33,-6605.67,-7454.73,9784.03
1052100.9121,8941.46,2839.8,-6767.94,5111.41,21312.72,-6612.35,-7388.21,9756.18
1052100.9161,8969.02,2921.44,-6718.64,5108.02,21300.46,-6683.78,-7482.77,9706.64
1052100.9201,8955.05,2877.81,-6743.48,5102.44,21267.94,-6712.63,-7623.86,9713.32
1052100.9241,8925.49,2793.46,-6794.79,5091.62,21293.07,-6612.83,-7492.3,9782.17
1052100.9281,8950.85,2848.29,-6750.78,5116.99,21338.23,-6556.56,-7318.07,9802.25
1052100.9321,8970.26,2928.07,-6704.05,5123.66,21333.27,-6631.18,-7367.71,9747.89
1052100.9361,8929.83,2873.56,-6751.06,5087.81,21285.25,-6698.61,-7511.24,9714.84
1052100.9401,8897.26,2777.0,-6813.1,5068.87,21294.83,-6612.97,-7440.71,9792.52
1052100.9441,8905.79,2797.89,-6797.36,5081.23,21338.32,-6545.69,-7245.16,9815.74
1052100.9481,8934.07,2890.4,-6735.47,5103.16,21326.54,-6631.28,-7278.16,9732.06
1052100.9521,8947.75,2910.52,-6719.78,5114.37,21340.42,-6665.18,-7386.21,9733.06
1052100.9561,8887.1,2784.68,-6814.62,5059.77,21302.75,-6649.49,-7432.65,9762.81
1052100.9601,8850.0,2739.48,-6858.68,5024.2,21291.69,-6604.39,-7279.25,9773.06
1052100.9641,8885.34,2833.32,-6796.07,5043.98,21292.02,-6644.68,-7350.02,9757.9
1052100.9681,8910.75,2873.66,-6761.41,5071.35,21285.97,-6723.69,-7544.14,9718.09
1052100.9721,8879.61,2780.91,-6818.72,5061.05,21224.31,-6750.39,-7692.15,9707.6
1052100.9761,8843.52,2716.02,-6863.17,5039.64,21284.01,-6692.17,-7575.47,9731.63
1052100.9801,8874.8,2807.14,-6795.22,5064.87,21311.19,-6723.98,-7603.84,9702.97
1052100.9841,8880.43,2842.86,-6777.1,5062.49,21272.33,-6820.16,-7807.35,9652.52
1052100.9881,8863.35,2765.89,-6827.64,5053.0,21240.67,-6832.55,-7983.92,9683.56
1052100.9921,8838.32,2696.47,-6877.38,5027.25,21243.38,-6771.8,-7897.81,9718.23
1052100.9961,8856.01,2763.08,-6832.22,5039.12,21245.58,-6822.3,-7925.23,9665.54
1052101.0001,8864.4,2814.72,-6797.74,5051.66,21215.78,-6932.64,-8110.81,9596.49
1052101.0041,8841.66,2743.58,-6846.29,5038.36,21187.88,-6970.84,-8302.02,9604.41
1052101.0081,8816.15,2664.61,-6897.45,5022.34,21208.96,-6890.15,-8213.14,9661.39
1052101.0121,8838.89,2727.94,-6846.29,5048.08,21234.61,-6889.3,-8164.12,9641.22
1052101.0161,8833.7,2773.24,-6827.02,5028.87,21205.95,-7011.94,-8347.75,9560.44
1052101.0201,8828.45,2733.9,-6854.82,5023.62,21185.59,-7059.77,-8560.18,9564.83
1052101.0241,8816.67,2655.55,-6900.98,5021.53,21209.48,-6989.53,-8522.99,9623.24
1052101.0281,8837.37,2703.86,-6862.45,5044.89,21243.1,-6958.82,-8429.72,9625.01
1052101.0321,8827.97,2752.73,-6842.38,5021.95,21205.19,-7081.6,-8583.07,9532.55
1052101.0361,8823.06,2734.52,-6851.15,5022.96,21187.98,-7123.57,-8759.55,9533.93
1052101.0401,8812.62,2656.27,-6895.26,5024.82,21193.27,-7051.52,-8760.5,9598.21
1052101.0441,8798.74,2650.93,-6904.17,5009.37,21208.72,-7001.83,-8617.02,9604.36
1052101.0481,8806.13,2720.74,-6864.79,5002.64,21186.88,-7077.31,-8696.37,9544.28
1052101.0521,8810.95,2730.51,-6853.58,5014.32,21171.24,-7125.28,-8850.24,9527.68
1052101.056,8790.59,2641.11,-6906.99,5008.75,21166.04,-7086.13,-8878.57,9573.51
1052101.06,8781.29,2628.37,-6917.19,4999.92,21178.87,-7010.65,-8680.15,9599.26
1052101.064,8801.65,2713.25,-6866.5,5001.45,21202.14,-7047.03,-8653.07,9563.11
1052101.068,8813.29,2749.59,-6838.94,5015.33,21219.11,-7063.2,-8703.71,9575.32
1052101.072,8778.86,2651.41,-6909.9,4985.57,21185.78,-7047.22,-8758.45,9595.49
1052101.076,8767.46,2621.79,-6927.25,4986.33,21208.67,-6959.25,-8519.03,9606.31
1052101.08,8784.96,2702.38,-6874.09,5002.5,21216.3,-6980.85,-8422.52,9567.07
1052101.084,8809.76,2764.13,-6837.65,5008.17,21209.67,-7014.8,-8455.23,9547.85
1052101.088,8788.21,2692.32,-6882.86,4996.59,21210.29,-6964.4,-8449.65,9608.65
1052101.092,8777.52,2648.74,-6910.75,5000.83,21257.12,-6818.2,-8154.68,9687.23
1052101.096,8795.69,2721.45,-6873.47,4995.97,21267.37,-6816.72,-8019.59,9652.52
1052101.1,8820.53,2791.41,-6831.5,5005.12,21260.84,-6860.92,-8043.77,9611.08
1052101.104,8816.2,2746.82,-6855.54,5013.9,21249.92,-6840.9,-8097.22,9651.47
1052101.108,8798.27,2681.4,-6897.26,5007.17,21294.17,-6708.48,-7865.38,9739.69
1052101.112,8792.45,2722.6,-6879.43,4995.25,21307.47,-6687.31,-7708.55,9717.66
1052101.116,8814.34,2800.8,-6830.5,5008.65,21279.1,-6770.42,-7787.71,9651.81
1052101.12,8815.24,2768.61,-6848.62,5011.23,21248.01,-6814.29,-7921.51,9636.74
1052101.124,8804.61,2695.47,-6890.15,5005.5,21279.05,-6713.44,-7809.45,9709.22
1052101.128,8796.41,2720.02,-6874.28,5002.98,21292.02,-6692.7,-7675.27,9696.39
1052101.132,8805.47,2788.83,-6837.8,4993.01,21263.32,-6793.5,-7791.14,9625.34
1052101.136,8810.95,2777.05,-6847.95,4994.58,21241.19,-6843.04,-7961.42,9619.57
1052101.14,8793.31,2694.51,-6895.16,4992.06,21254.92,-6760.41,-7904.34,9686.28
1052101.144,8798.6,2713.39,-6878.42,4999.3,21302.99,-6679.01,-7677.65,9712.74
1052101.148,8836.89,2815.91,-6810.71,5022.0,21316.34,-6718.68,-7655.34,9674.65
1052101.152,8828.12,2811.72,-6821.01,5007.32,21285.82,-6762.6,-7732.73,9650.42
1052101.156,8790.92,2716.83,-6885.72,4985.43,21281.05,-6687.02,-7647.37,9706.69
1052101.16,8789.92,2716.73,-6884.29,4991.44,21330.36,-6559.8,-7313.06,9751.37
1052101.164,8811.86,2811.1,-6821.82,5003.6,21348.15,-6563.81,-7188.75,9722.04
1052101.168,8817.34,2846.43,-6800.65,5008.03,21344.85,-6575.87,-7181.36,9712.55
1052101.172,8808.57,2773.33,-6846.91,4999.3,21351.1,-6507.92,-7101.16,9762.81
1052101.176,8811.62,2756.02,-6859.59,5003.5,21406.37,-6360.87,-6753.87,9834.48
1052101.18,8812.14,2821.35,-6821.78,4998.4,21402.08,-6381.32,-6653.88,9793.52
1052101.1839,8824.25,2871.32,-6795.98,4995.16,21383.19,-6433.06,-6709.53,9756.95
1052101.1879,8822.25,2815.2,-6831.69,4996.06,21376.33,-6400.54,-6747.15,9801.34
1052101.1919,8817.53,2771.81,-6863.4,4992.29,21418.48,-6268.55,-6491.47,9879.64
1052101.1959,8833.65,2838.95,-6821.82,5000.02,21426.16,-6269.84,-6395.63,9855.7
1052101.1999,8843.95,2900.51,-6782.39,5010.27,21404.22,-6349.33,-6470.73,9791.8
1052101.2039,8833.31,2850.44,-6812.53,5006.98,21390.82,-6339.84,-6567.72,9829.9
1052101.2079,8816.2,2778.77,-6859.35,4991.01,21424.96,-6224.63,-6388.76,9913.25
1052101.2119,8831.45,2832.94,-6817.15,5007.51,21438.12,-6220.48,-6278.47,9888.55
1052101.2159,8830.02,2889.16,-6786.82,4999.69,21399.17,-6324.34,-6392.91,9802.06
1052101.2199,8819.2,2850.49,-6808.0,4996.44,21360.07,-6363.73,-6559.9,9797.48
1052101.2239,8804.27,2776.58,-6850.53,4993.25,21380.09,-6271.08,-6467.87,9866.14
1052101.2279,8811.28,2808.95,-6831.79,4996.49,21412.8,-6238.22,-6341.98,9866.29
1052101.2319,8831.93,2886.34,-6787.16,4998.68,21393.21,-6331.59,-6462.24,9808.68
1052101.2359,8832.65,2870.04,-6792.88,5005.93,21371.61,-6374.79,-6655.07,9817.89
1052101.2399,8807.9,2772.47,-6855.44,4997.44,21382.81,-6317.76,-6651.21,9871.91
1052101.2439,8810.57,2779.77,-6856.49,4985.86,21400.98,-6277.85,-6541.49,9870.01
1052101.2479,8818.58,2850.63,-6811.81,4991.58,21370.56,-6385.04,-6690.79,9789.13
1052101.2519,8810.04,2843.71,-6819.82,4984.24,21324.97,-6475.35,-6932.45,9757.0
1052101.2559,8808.57,2774.48,-6852.48,4999.59,21340.8,-6421.04,-6980.52,9819.79
1052101.2599,8786.35,2747.11,-6874.66,4980.85,21363.31,-6360.96,-6806.61,9832.24
1052101.2639,8800.94,2825.69,-6823.45,4984.33,21355.2,-6415.22,-6817.87,9779.31
1052101.2679,8814.57,2858.59,-6807.04,4987.72,21341.52,-6470.87,-6922.96,9758.24
1052101.2719,8795.26,2778.77,-6861.02,4978.23,21343.14,-6429.67,-6921.63,9796.43
1052101.2759,8785.15,2749.49,-6877.95,4981.8,21395.26,-6295.25,-6623.94,9864.95
1052101.2799,8802.22,2831.51,-6826.69,4984.76,21406.7,-6305.31,-6501.96,9824.9
1052101.2839,8829.74,2901.46,-6784.11,4999.35,21409.13,-6331.97,-6497.81,9805.2
1052101.2879,8815.58,2840.9,-6823.83,4998.64,21401.98,-6292.63,-6480.74,9853.51
1052101.2919,8814.91,2801.28,-6847.76,4996.68,21457.44,-6142.66,-6164.89,9940.43
1052101.2959,8821.06,2858.93,-6819.06,4983.43,21462.01,-6141.47,-6023.22,9905.63
1052101.2999,8832.12,2920.68,-6780.82,4989.86,21440.89,-6206.42,-6077.24,9850.36
1052101.3039,8822.35,2870.04,-6812.67,4985.71,21411.99,-6223.82,-6188.82,9865.57
1052101.3079,8813.76,2802.52,-6857.06,4978.85,21428.73,-6133.84,-6051.21,9930.66
1052101.3118,8818.68,2842.67,-6836.32,4974.41,21436.65,-6140.9,-5990.36,9910.58
1052101.3158,8822.97,2904.99,-6797.55,4981.09,21418.57,-6245.76,-6138.09,9832.29
1052101.3198,8816.2,2861.79,-6822.06,4978.8,21378.47,-6315.42,-6354.38,9815.74
1052101.3238,8798.31,2777.43,-6868.41,4977.37,21394.49,-6240.75,-6300.97,9887.17
1052101.3278,8796.69,2802.32,-6850.48,4979.04,21413.85,-6222.3,-6187.87,9879.3
1052101.3318,8809.38,2875.28,-6805.13,4983.47,21390.35,-6321.53,-6313.52,9813.93
1052101.3358,8807.66,2862.64,-6810.48,4988.15,21359.59,-6393.53,-6499.2,9787.08
1052101.3398,8792.16,2774.95,-6867.7,4973.7,21366.22,-6338.93,-6485.56,9848.6
1052101.3438,8788.97,2777.53,-6871.8,4963.35,21398.5,-6287.81,-6321.38,9867.24
1052101.3478,8822.49,2867.41,-6811.19,4983.95,21387.29,-6381.32,-6420.33,9804.25
1052101.3518,8813.67,2858.35,-6818.68,4976.37,21337.18,-6483.51,-6648.02,9758.04
1052101.3558,8780.67,2757.93,-6881.38,4960.78,21321.63,-6474.64,-6738.81,9796.76
1052101.3598,8791.59,2754.4,-6878.04,4980.09,21366.22,-6400.11,-6582.74,9843.35
1052101.3638,8801.13,2820.44,-6837.51,4979.8,21342.61,-6496.48,-6701.04,9771.92
1052101.3678,8789.11,2826.07,-6841.23,4957.01,21292.16,-6620.65,-6947.38,9703.97
1052101.3718,8775.81,2744.39,-6888.91,4947.71,21273.09,-6632.23,-7098.48,9732.82
1052101.3758,8769.23,2706.86,-6912.23,4945.37,21307.14,-6549.79,-6951.19,9780.22
1052101.3798,8774.28,2766.09,-6874.37,4948.04,21289.26,-6625.61,-7026.67,9712.27
1052101.3838,8789.21,2813.72,-6840.18,4963.3,21262.93,-6718.73,-7233.38,9665.06
1052101.3878,8774.42,2742.82,-6880.38,4959.49,21242.1,-6727.12,-7415.72,9701.3
1052101.3918,8777.86,2703.71,-6897.4,4968.12,21292.31,-6615.07,-7260.94,9781.41
1052101.3958,8800.17,2776.24,-6849.77,4982.42,21302.51,-6638.0,-7255.75,9754.23
1052101.3998,8781.15,2801.23,-6849.05,4953.67,21243.43,-6785.16,-7455.4,9635.54
1052101.4038,8769.8,2746.01,-6879.62,4954.62,21223.36,-6803.99,-7619.72,9656.57
1052101.4078,8759.21,2680.68,-6920.96,4953.24,21253.49,-6704.43,-7479.33,9716.94
1052101.4118,8769.66,2728.03,-6892.11,4953.77,21268.66,-6702.52,-7396.03,9699.63
1052101.4158,8792.07,2805.33,-6841.9,4965.07,21257.21,-6777.0,-7500.03,9654.9
1052101.4198,8789.02,2777.77,-6857.49,4969.26,21243.72,-6794.07,-7655.62,9682.04
1052101.4238,8768.94,2695.61,-6906.8,4960.44,21248.53,-6735.04,-7590.49,9713.6
1052101.4278,8763.22,2712.92,-6896.83,4957.44,21267.32,-6733.8,-7467.6,9674.12
1052101.4318,8781.86,2790.17,-6847.76,4969.79,21252.68,-6818.3,-7574.13,9610.7
1052101.4358,8779.1,2773.81,-6859.73,4964.54,21220.88,-6881.71,-7769.54,9594.87
1052101.4397,8762.65,2687.98,-6910.42,4956.91,21229.17,-6817.15,-7760.1,9661.01
1052101.4437,8766.13,2699.33,-6895.64,4965.12,21267.56,-6747.1,-7590.29,9691.1
1052101.4477,8795.41,2794.27,-6828.64,4991.68,21262.03,-6816.58,-7666.92,9636.93
1052101.4517,8763.27,2766.9,-6859.26,4959.25,21192.84,-6922.25,-7892.09,9579.23
1052101.4557,8754.21,2686.36,-6904.89,4961.01,21204.14,-6882.95,-7925.85,9628.82
1052101.4597,8747.01,2666.04,-6922.06,4950.19,21233.51,-6812.67,-7736.54,9654.33
1052101.4637,8774.57,2756.83,-6861.02,4968.21,21234.66,-6868.89,-7773.92,9605.22
1052101.4677,8769.08,2776.38,-6850.43,4964.4,21202.66,-6953.48,-7951.36,9558.35
1052101.4717,8764.41,2707.48,-6886.63,4967.74,21205.67,-6921.72,-8037.43,9615.47
1052101.4757,8750.68,2667.05,-6914.66,4958.01,21242.14,-6825.64,-7852.65,9667.92
1052101.4797,8756.78,2728.37,-6880.86,4954.05,21222.31,-6888.87,-7902.58,9612.66
1052101.4837,8779.38,2785.11,-6840.33,4981.52,21200.95,-6975.56,-8099.51,9575.65
1052101.4877,8764.17,2711.25,-6882.1,4980.28,21175.91,-7009.32,-8279.13,9576.99
1052101.4917,8747.91,2647.07,-6924.92,4959.01,21198.7,-6941.51,-8170.7,9612.51
1052101.4957,8747.48,2695.23,-6898.17,4951.29,21184.97,-6989.77,-8203.65,9558.87
1052101.4997,8765.17,2761.32,-6856.06,4965.97,21163.13,-7078.51,-8379.03,9507.8
1052101.5037,8755.35,2710.39,-6885.0,4965.83,21139.2,-7104.59,-8571.86,9526.78
1052101.5077,8736.42,2634.0,-6936.98,4952.29,21165.37,-7015.99,-8476.78,9595.63
1052101.5117,8745.24,2677.25,-6910.9,4954.15,21183.92,-7004.79,-8400.25,9582.52
1052101.5157,8772.04,2757.5,-6853.77,4970.5,21182.11,-7068.44,-8485.75,9538.89
1052101.5197,8770.18,2726.13,-6869.6,4970.74,21171.67,-7084.85,-8640.67,9570.98
1052101.5237,8748.58,2639.58,-6924.25,4960.87,21175.67,-7031.63,-8583.02,9588.43
1052101.5277,8741.52,2656.98,-6913.28,4957.25,21186.35,-7012.75,-8441.59,9556.87
1052101.5317,8764.84,2744.68,-6858.06,4968.07,21176.63,-7065.49,-8488.51,9511.14
1052101.5357,8767.42,2742.67,-6856.92,4978.28,21159.99,-7096.29,-8624.17,9514.71
1052101.5397,8763.41,2673.15,-6899.74,4976.89,21184.83,-7007.36,-8552.98,9592.82
1052101.5437,8771.47,2692.65,-6886.01,4978.23,21228.46,-6912.18,-8295.87,9621.91
1052101.5477,8781.86,2769.38,-6842.9,4971.89,21214.77,-6968.69,-8271.36,9554.43
1052101.5517,8788.01,2786.02,-6837.94,4968.45,21192.36,-7004.83,-8339.26,9536.17
1052101.5557,8783.06,2718.5,-6875.8,4974.32,21219.78,-6901.79,-8246.23,9625.53
1052101.5597,8780.77,2710.77,-6885.15,4969.36,21275.52,-6761.5,-7911.06,9686.04
1052101.5637,8774.38,2772.0,-6855.06,4954.62,21253.78,-6809.14,-7826.42,9610.37
1052101.5676,8785.53,2811.05,-6829.74,4961.21,21238.14,-6847.0,-7860.42,9591.63
1052101.5716,8784.01,2748.16,-6865.69,4961.3,21246.01,-6783.82,-7843.3,9658.86
1052101.5756,8782.29,2722.03,-6881.33,4960.49,21290.97,-6650.07,-7552.82,9723.47
1052101.5796,8809.9,2813.86,-6816.82,4978.66,21300.08,-6660.13,-7444.43,9680.56
1052101.5836,8827.74,2869.56,-6783.39,4986.0,21282.72,-6733.18,-7515.38,9617.19
1052101.5876,8818.29,2805.85,-6821.97,4984.05,21269.09,-6721.83,-7601.41,9653.33
1052101.5916,8807.09,2751.97,-6856.35,4980.23,21304.04,-6600.81,-7402.18,9729.43
1052101.5956,8809.19,2811.29,-6817.53,4987.1,21317.87,-6592.7,-7297.37,9706.55
1052101.5996,8835.03,2885.34,-6769.13,5003.36,21315.91,-6665.28,-7349.92,9649.23
1052101.6036,8833.79,2838.61,-6798.27,5000.88,21284.77,-6685.31,-7504.8,9672.21
1052101.6076,8829.79,2777.24,-6827.78,5009.6,21320.54,-6574.3,-7362.56,9757.66
1052101.6116,8825.59,2810.67,-6817.34,4994.11,21308.57,-6579.97,-7263.66,9714.51
1052101.6156,8842.85,2885.82,-6769.71,5006.98,21287.78,-6677.1,-7339.19,9633.59
1052101.6196,8857.3,2867.84,-6783.82,5002.64,21267.85,-6709.77,-7486.44,9638.45
1052101.6236,8845.85,2793.55,-6835.46,4992.15,21277.1,-6628.56,-7428.98,9701.16
1052101.6276,8871.94,2839.52,-6806.09,5001.69,21300.94,-6576.01,-7267.19,9714.8
1052101.6316,8919.72,2942.47,-6738.0,5023.86,21293.83,-6646.01,-7302.95,9652.33
1052101.6356,8941.94,2951.81,-6723.79,5046.18,21270.42,-6696.75,-7464.12,9643.37
1052101.6396,8948.04,2891.3,-6753.64,5056.62,21280.01,-6627.42,-7474.47,9714.27
1052101.6436,8946.75,2901.22,-6747.68,5050.66,21313.38,-6554.27,-7289.7,9739.69
1052101.6476,8969.83,2987.53,-6686.07,5068.45,21312.33,-6618.45,-7304.24,9684.04
1052101.6516,9005.6,3029.35,-6638.91,5117.13,21278.77,-6694.46,-7469.65,9647.9
1052101.6556,9014.89,2969.41,-6656.5,5151.94,21261.98,-6670.81,-7562.97,9691.72
1052101.6596,9011.94,2958.39,-6656.5,5164.91,21300.89,-6586.89,-7373.29,9725.81
1052101.6636,9024.29,3040.93,-6602.53,5178.02,21313.77,-6624.03,-7334.19,9688.19
1052101.6676,9020.09,3061.58,-6595.71,5163.81,21282.96,-6693.17,-7460.26,9651.57
1052101.6716,9003.35,2982.04,-6639.77,5164.86,21262.79,-6680.58,-7569.46,9687.33
1052101.6756,8986.09,2935.46,-6667.42,5160.05,21299.6,-6578.97,-7371.24,9739.88
1052101.6796,8987.0,2994.82,-6638.15,5149.08,21306.99,-6603.48,-7305.81,9701.78
1052101.6836,8988.52,3041.32,-6617.12,5143.21,21284.3,-6674.48,-7399.99,9656.91
1052101.6876,8960.44,2956.3,-6674.34,5116.13,21262.93,-6678.63,-7545.52,9680.65
1052101.6916,8933.4,2881.77,-6724.69,5097.77,21300.65,-6576.44,-7390.45,9744.55
1052101.6956,8939.46,2944.42,-6675.1,5118.04,21320.63,-6574.73,-7279.49,9723.47
1052101.6996,8947.33,3003.41,-6640.29,5120.75,21295.31,-6657.17,-7351.92,9666.83
1052101.7036,8922.24,2938.08,-6686.5,5103.68,21263.7,-6690.07,-7533.22,9676.65
1052101.7076,8886.96,2846.91,-6744.81,5084.61,21278.53,-6609.63,-7456.11,9731.01
1052101.7116,8886.05,2883.1,-6726.08,5077.79,21292.98,-6598.47,-7329.51,9712.08
1052101.7156,8896.78,2952.43,-6687.74,5077.03,21278.34,-6673.15,-7386.26,9658.39
1052101.7196,8903.46,2931.17,-6700.14,5082.99,21274.52,-6695.46,-7542.61,9678.79
1052101.7236,8851.48,2813.67,-6782.48,5045.03,21271.42,-6634.28,-7530.79,9728.91
1052101.7276,8858.73,2843.86,-6758.07,5056.62,21318.72,-6572.91,-7350.64,9749.8
1052101.7316,8853.15,2902.7,-6734.09,5038.41,21291.97,-6661.03,-7389.69,9671.07
1052101.7356,8858.82,2901.03,-6736.99,5040.36,21278.91,-6699.66,-7532.41,9669.11
1052101.7396,8813.33,2790.74,-6811.81,5011.42,21266.51,-6653.02,-7573.41,9709.98
1052101.7436,8803.7,2791.36,-6814.24,5004.22,21302.89,-6569.2,-7378.67,9741.59
1052101.7476,8830.45,2886.58,-6756.97,5013.9,21315.72,-6600.0,-7337.67,9710.22
1052101.7516,8826.07,2890.4,-6758.98,5008.08,21285.82,-6667.09,-7460.88,9666.87
1052101.7556,8804.42,2798.37,-6813.0,4999.92,21282.25,-6624.41,-7527.54,9721.52
1052101.7595,8799.22,2780.1,-6825.88,4995.25,21325.45,-6514.26,-7305.81,9772.92
1052101.7635,8828.16,2875.28,-6765.7,5013.42,21344.47,-6534.62,-7212.69,9737.78
1052101.7675,8822.25,2893.64,-6767.32,4998.02,21308.57,-6605.05,-7301.62,9694.53
1052101.7715,8792.5,2802.23,-6827.07,4977.13,21292.26,-6591.27,-7376.81,9729.24
1052101.7755,8790.45,2769.66,-6841.04,4982.57,21335.94,-6475.4,-7143.31,9784.65
1052101.7795,8799.6,2838.33,-6801.32,4980.28,21328.12,-6496.19,-7060.72,9738.64
1052101.7835,8800.46,2883.15,-6780.86,4972.12,21309.47,-6558.28,-7118.51,9700.82
1052101.7875,8781.39,2813.15,-6820.97,4966.02,21283.92,-6555.37,-7240.01,9735.49
1052101.7915,8766.7,2750.3,-6857.78,4961.97,21320.97,-6445.03,-7054.71,9799.24
1052101.7955,8789.97,2820.68,-6812.53,4974.03,21345.9,-6431.77,-6912.57,9778.88
1052101.7995,8806.75,2894.02,-6769.71,4981.57,21333.12,-6496.48,-6944.13,9726.57
1052101.8035,8803.56,2851.92,-6796.93,4981.09,21314.24,-6505.2,-7070.83,9745.27
1052101.8075,8782.39,2772.57,-6846.43,4971.74,21332.31,-6398.2,-6956.63,9814.17
1052101.8115,8787.87,2812.48,-6826.74,4965.59,21358.78,-6358.2,-6770.99,9808.02
1052101.8155,8800.94,2887.2,-6785.16,4965.93,21359.49,-6409.55,-6756.12,9765.63
1052101.8195,8802.65,2868.7,-6798.75,4967.55,21342.71,-6430.48,-6867.46,9773.16
1052101.8235,8789.73,2791.07,-6840.9,4967.45,21368.17,-6330.3,-6781.05,9847.4
1052101.8275,8762.03,2786.02,-6855.87,4939.65,21370.32,-6295.97,-6605.72,9832.72
1052101.8315,8785.25,2874.8,-6803.18,4951.76,21374.75,-6346.94,-6573.53,9784.37
1052101.8355,8788.73,2871.9,-6803.23,4957.25,21353.77,-6386.28,-6688.79,9779.98
1052101.8395,8772.56,2787.16,-6851.15,4953.0,21368.46,-6319.62,-6675.77,9838.3
1052101.8435,8768.65,2790.79,-6849.62,4950.24,21402.17,-6227.45,-6448.98,9872.91
1052101.8475,8791.26,2886.92,-6785.25,4972.7,21417.05,-6250.29,-6358.91,9836.63
1052101.8515,8798.5,2906.75,-6784.06,4960.11,21401.07,-6302.31,-6426.96,9802.87
1052101.8555,8759.02,2800.89,-6859.64,4925.01,21380.57,-6256.87,-6470.97,9849.07
1052101.8595,8752.49,2781.73,-6870.13,4925.92,21424.96,-6131.6,-6237.36,9913.92
1052101.8635,8769.18,2863.74,-6820.2,4934.69,21430.07,-6172.09,-6165.31,9862.42
1052101.8675,8779.19,2898.31,-6801.8,4940.22,21410.85,-6249.81,-6260.35,9820.89
1052101.8715,8777.81,2833.22,-6834.13,4951.91,21393.3,-6234.6,-6405.21,9860.56
1052101.8755,8765.17,2787.11,-6860.4,4949.28,21417.81,-6135.7,-6258.73,9914.78
1052101.8795,8753.49,2832.56,-6838.18,4932.26,21398.59,-6193.69,-6214.81,9850.22
1052101.8835,8776.86,2889.49,-6805.37,4937.55,21382.95,-6285.95,-6311.61,9801.34
1052101.8874,8775.57,2835.7,-6831.89,4946.85,21383.81,-6277.8,-6434.11,9840.82
1052101.8914,8741.24,2755.45,-6887.96,4921.15,21398.69,-6196.4,-6326.96,9885.03
1052101.8954,8749.68,2812.91,-6856.44,4922.53,21394.16,-6214.29,-6248.95,9853.17
1052101.8994,8767.51,2877.05,-6821.97,4926.83,21368.46,-6311.23,-6348.09,9791.57
1052101.9034,8763.65,2828.17,-6853.77,4924.97,21341.37,-6347.28,-6548.98,9806.06
1052101.9074,8738.8,2737.76,-6912.85,4905.27,21350.43,-6278.28,-6533.15,9865.09
1052101.9114,8749.25,2777.82,-6888.34,4907.27,21367.41,-6279.09,-6426.29,9842.54
1052101.9154,8768.04,2851.53,-6844.24,4915.05,21360.21,-6376.31,-6495.1,9781.65
1052101.9194,8777.86,2835.23,-6846.05,4932.36,21334.84,-6426.29,-6698.7,9783.56
1052101.9234,8731.51,2722.93,-6923.68,4895.35,21321.2,-6382.7,-6749.34,9827.33
1052101.9274,8713.68,2723.36,-6930.02,4873.71,21345.95,-6352.43,-6617.4,9826.18
1052101.9314,8737.61,2809.14,-6870.8,4898.93,21343.0,-6435.3,-6640.39,9768.15
1052101.9354,8763.22,2829.12,-6833.27,4953.91,21304.09,-6510.12,-6824.3,9743.83
1052101.9394,8751.06,2749.4,-6872.42,4962.59,21302.18,-6463.39,-6894.83,9802.58
1052101.9434,8727.6,2731.18,-6890.87,4942.47,21336.75,-6393.72,-6721.12,9830.67
1052101.9474,8740.47,2806.62,-6851.24,4940.37,21323.21,-6478.64,-6725.6,9753.56
1052101.9514,8748.91,2823.4,-6843.81,4943.61,21294.55,-6563.33,-6872.75,9715.37
1052101.9554,8719.4,2724.93,-6908.61,4917.72,21276.38,-6538.2,-6999.16,9768.87
1052101.9594,8702.76,2692.75,-6929.06,4907.8,21304.9,-6449.7,-6836.13,9813.45
1052101.9634,8725.93,2776.15,-6880.0,4909.56,21314.43,-6500.44,-6783.68,9761.81
1052101.9674,8739.76,2817.92,-6855.87,4916.86,21298.17,-6571.15,-6894.11,9723.66
1052101.9714,8725.02,2739.38,-6897.4,4923.01,21276.1,-6572.91,-7064.39,9754.09
1052101.9754,8692.89,2673.1,-6942.32,4904.46,21288.54,-6499.2,-6945.8,9788.18
1052101.9794,8701.13,2738.0,-6899.93,4910.28,21310.28,-6529.81,-6860.02,9752.66
1052101.9834,8710.91,2786.68,-6872.8,4911.33,21285.01,-6621.31,-6960.44,9698.11
1052101.9874,8690.5,2714.06,-6917.1,4902.79,21252.01,-6641.87,-7160.76,9720.9
1052101.9914,8673.57,2648.4,-6951.95,4899.69,21280.34,-6539.01,-7060.15,9785.7
1052101.9954,8687.78,2709.06,-6915.33,4908.9,21291.45,-6554.18,-6974.7,9751.7
1052101.9994,8713.63,2785.49,-6866.65,4925.92,21278.24,-6642.2,-7056.62,9691.48
1052102.0034,8700.8,2730.94,-6905.13,4907.42,21242.86,-6684.11,-7282.59,9695.48
1052102.0074,8681.49,2648.5,-6955.96,4894.69,21264.27,-6591.85,-7246.11,9760.57
1052102.0114,8708.76,2708.01,-6914.57,4913.57,21306.09,-6558.75,-7106.64,9762.24
1052102.0153,8728.17,2787.88,-6867.55,4918.05,21295.03,-6645.35,-7154.32,9693.81
1052102.0193,8706.71,2744.72,-6901.36,4902.46,21245.58,-6708.96,-7372.81,9673.07
1052102.0233,8661.41,2633.76,-6976.22,4868.6,21228.89,-6651.59,-7409.24,9715.51
1052102.0273,8662.7,2656.94,-6958.29,4872.47,21265.8,-6596.61,-7239.96,9727.24
1052102.0313,8684.21,2743.96,-6905.37,4888.25,21266.27,-6673.58,-7242.63,9664.3
1052102.0353,8680.44,2732.42,-6915.52,4888.06,21235.99,-6742.76,-7422.97,9643.79
1052102.0393,8660.7,2643.44,-6967.45,4879.9,21231.89,-6683.54,-7496.69,9708.5
1052102.0433,8674.15,2659.27,-6949.76,4895.45,21290.69,-6594.04,-7300.71,9751.89
1052102.0473,8709.24,2758.46,-6881.57,4922.3,21298.46,-6655.03,-7270.29,9698.82
1052102.0513,8697.94,2756.69,-6894.59,4901.08,21248.1,-6744.48,-7431.32,9652.38
1052102.0553,8672.76,2664.9,-6950.86,4885.2,21239.19,-6709.15,-7524.44,9699.54
1052102.0593,8659.65,2632.05,-6969.26,4876.28,21273.95,-6622.55,-7347.92,9741.5
1052102.0633,8683.92,2719.64,-6913.28,4890.59,21276.81,-6675.05,-7309.39,9697.2
1052102.0673,8695.17,2758.69,-6895.11,4893.54,21242.33,-6757.21,-7455.06,9655.76
1052102.0713,8660.22,2663.23,-6957.44,4867.7,21193.03,-6772.95,-7658.53,9664.97
1052102.0753,8645.2,2614.26,-6988.34,4857.68,21228.51,-6688.21,-7510.0,9703.69
1052102.0793,8664.37,2689.65,-6943.56,4865.93,21251.2,-6716.97,-7417.78,9669.35
1052102.0833,8685.73,2748.87,-6906.22,4879.28,21243.05,-6794.26,-7494.78,9625.25
1052102.0873,8661.94,2672.1,-6955.58,4862.93,21202.14,-6814.1,-7687.38,9636.12
1052102.0913,8642.96,2609.63,-6990.86,4857.35,21235.13,-6697.13,-7562.11,9708.45
1052102.0953,8672.14,2687.88,-6935.55,4877.95,21270.75,-6684.02,-7412.86,9695.86
1052102.0993,8696.94,2762.84,-6891.73,4886.01,21254.02,-6775.24,-7479.19,9635.16
1052102.1033,8692.65,2725.6,-6910.32,4894.35,21231.94,-6790.21,-7643.27,9652.9
1052102.1073,8679.82,2653.07,-6951.76,4891.49,21255.54,-6678.44,-7572.17,9734.54
1052102.1113,8693.12,2697.37,-6926.39,4894.64,21292.45,-6637.29,-7394.98,9738.49
1052102.1153,8711.77,2773.0,-6884.1,4900.12,21283.39,-6730.37,-7423.93,9668.92
1052102.1193,8689.36,2730.66,-6914.57,4885.29,21233.75,-6795.22,-7622.62,9640.74
1052102.1233,8666.33,2642.58,-6965.54,4880.62,21247.25,-6708.62,-7626.25,9705.35
1052102.1273,8684.54,2674.72,-6945.85,4882.86,21292.02,-6650.64,-7443.14,9713.32
1052102.1313,8688.26,2740.57,-6915.86,4867.84,21251.25,-6766.99,-7491.4,9616.47
1052102.1353,8692.31,2741.05,-6912.28,4873.47,21219.78,-6826.5,-7669.07,9602.55
1052102.1393,8676.1,2655.74,-6962.87,4865.74,21210.48,-6767.18,-7760.14,9664.2
1052102.1432,8672.38,2648.16,-6972.03,4855.68,21243.15,-6706.05,-7597.45,9683.28
1052102.1472,8696.75,2735.81,-6916.24,4869.41,21253.11,-6782.06,-7566.31,9621.81
1052102.1512,8712.72,2763.18,-6897.31,4886.58,21230.8,-6848.1,-7718.13,9599.16
1052102.1552,8663.08,2646.73,-6974.79,4851.01,21190.88,-6840.42,-7880.64,9621.34
1052102.1592,8645.58,2611.26,-6999.92,4836.37,21225.12,-6749.34,-7718.37,9660.82
1052102.1632,8673.24,2696.32,-6949.76,4849.86,21252.68,-6796.69,-7643.61,9620.24
1052102.1672,8682.63,2731.75,-6930.16,4849.2,21220.31,-6880.24,-7772.88,9574.94
1052102.1712,8651.83,2640.77,-6983.04,4834.94,21184.02,-6877.47,-7965.28,9602.36
1052102.1752,8642.05,2596.19,-7009.13,4828.88,21218.35,-6773.52,-7823.71,9659.48
1052102.1792,8681.16,2688.46,-6940.03,4863.55,21251.39,-6787.73,-7724.29,9640.65
1052102.1832,8679.68,2725.17,-6929.45,4852.92,21220.73,-6891.06,-7813.98,9563.83
1052102.1872,8658.27,2654.27,-6972.31,4848.48,21179.3,-6910.18,-8014.11,9574.32
1052102.1912,8639.67,2591.09,-7006.84,4844.57,21218.02,-6782.15,-7882.88,9657.77
1052102.1952,8647.35,2643.44,-6978.7,4838.94,21228.75,-6799.75,-7760.57,9616.23
1052102.1992,8669.85,2716.54,-6935.79,4848.29,21223.88,-6886.01,-7801.82,9564.16
1052102.2032,8660.46,2673.44,-6960.82,4847.19,21197.56,-6900.93,-7977.49,9584.28
1052102.2072,8636.19,2591.75,-7007.08,4842.09,21209.19,-6798.98,-7924.51,9649.37
1052102.2112,8642.87,2631.04,-6986.81,4841.71,21226.84,-6778.0,-7755.52,9632.78
1052102.2152,8678.01,2726.84,-6922.29,4866.65,21230.41,-6842.66,-7745.46,9593.54
1052102.2192,8679.77,2708.24,-6931.02,4870.32,21203.43,-6893.3,-7906.29,9574.7
1052102.2232,8661.41,2625.37,-6980.13,4864.65,21199.9,-6827.02,-7915.55,9616.71
1052102.2272,8668.47,2648.78,-6960.39,4873.61,21229.27,-6763.65,-7723.43,9642.6
1052102.2312,8690.64,2731.85,-6911.85,4873.56,21227.36,-6851.39,-7719.14,9568.12
1052102.2352,8691.31,2730.99,-6915.52,4871.42,21206.24,-6906.22,-7870.44,9555.53
1052102.2392,8672.52,2646.02,-6964.78,4866.36,21197.7,-6841.37,-7947.78,9616.42
1052102.2432,8657.36,2628.76,-6978.7,4852.82,21213.58,-6777.0,-7786.08,9637.26
1052102.2472,8681.11,2715.16,-6930.92,4857.3,21216.2,-6851.63,-7743.5,9571.17
1052102.2512,8694.65,2741.48,-6915.95,4864.88,21200.95,-6915.76,-7862.19,9551.24
1052102.2552,8684.21,2665.71,-6952.14,4869.03,21200.23,-6865.26,-7970.62,9614.8
1052102.2592,8652.12,2613.31,-6990.53,4842.57,21213.96,-6782.25,-7805.16,9643.75
1052102.2632,8678.15,2698.56,-6936.5,4857.25,21226.17,-6823.59,-7715.13,9603.31
1052102.2672,8692.98,2742.1,-6914.0,4862.21,21204.71,-6899.17,-7802.77,9560.63
1052102.2712,8685.54,2676.06,-6945.42,4863.93,21197.27,-6869.36,-7944.92,9608.32
1052102.2752,8666.47,2624.13,-6977.13,4853.15,21230.65,-6753.64,-7784.46,9669.4
1052102.2792,8678.29,2691.36,-6937.7,4860.21,21233.23,-6792.4,-7686.47,9618.33
1052102.2832,8701.71,2758.46,-6896.21,4876.42,21232.56,-6859.88,-7733.06,9576.94
1052102.2872,8683.49,2692.99,-6938.79,4863.55,21197.99,-6876.56,-7932.95,9592.49
1052102.2912,8662.18,2622.37,-6979.85,4850.58,21214.44,-6770.47,-7842.54,9660.87
1052102.2952,8679.92,2684.88,-6937.46,4861.59,21230.6,-6773.57,-7707.5,9633.59
1052102.2992,8705.47,2762.79,-6888.1,4877.9,21224.69,-6861.35,-7746.55,9578.71
1052102.3032,8709.53,2726.65,-6905.99,4884.91,21203.9,-6889.39,-7935.33,9596.44
1052102.3072,8683.59,2642.2,-6957.77,4873.47,21210.96,-6800.99,-7893.71,9654.0
1052102.3112,8678.58,2666.43,-6947.33,4863.45,21227.31,-6787.97,-7743.12,9638.88
1052102.3152,8690.31,2737.33,-6910.61,4859.73,21206.86,-6886.77,-7779.41,9574.94
1052102.3192,8682.54,2708.48,-6929.02,4854.49,21176.67,-6939.75,-7970.19,9565.74
1052102.3232,8663.94,2623.32,-6974.79,4853.25,21184.4,-6860.11,-7993.22,9629.39
1052102.3272,8680.01,2653.41,-6953.76,4866.84,21221.21,-6796.79,-7815.08,9652.23
1052102.3312,8714.72,2747.49,-6894.11,4887.68,21220.11,-6874.9,-7824.37,9598.49
1052102.3351,8706.57,2734.09,-6903.98,4886.82,21176.77,-6951.0,-8012.15,9567.12
1052102.3391,8693.89,2654.36,-6941.37,4892.73,21177.82,-6884.67,-8081.53,9618.62
1052102.3431,8686.5,2647.11,-6952.1,4872.23,21217.73,-6792.5,-7885.55,9650.99
1052102.3471,8705.09,2733.37,-6900.74,4873.09,21222.88,-6844.14,-7827.57,9602.26
1052102.3511,8725.12,2770.23,-6871.42,4891.44,21208.05,-6906.22,-7922.94,9571.89
1052102.3551,8683.59,2665.95,-6942.27,4862.31,21178.92,-6875.71,-8034.47,9608.17
1052102.3591,8673.53,2637.82,-6961.54,4857.68,21220.31,-6760.98,-7827.47,9663.49
1052102.3631,8697.8,2724.22,-6906.75,4871.08,21230.8,-6798.17,-7725.81,9614.9
1052102.3671,8719.73,2778.96,-6871.03,4888.01,21224.98,-6854.82,-7782.17,9589.82
1052102.3711,8700.85,2703.48,-6917.81,4881.1,21200.23,-6834.56,-7920.74,9631.35
1052102.3751,8676.2,2638.86,-6960.25,4861.55,21217.63,-6738.33,-7771.68,9673.45
1052102.3791,8692.55,2707.2,-6915.43,4869.22,21231.37,-6766.84,-7660.72,9632.49
1052102.3831,8708.1,2763.8,-6883.67,4877.23,21210.48,-6861.78,-7717.13,9564.83
1052102.3871,8706.76,2712.44,-6908.8,4887.49,21192.17,-6859.02,-7883.74,9601.64
1052102.3911,8713.68,2668.48,-6928.4,4894.3,21249.25,-6717.25,-7747.27,9700.73
1052102.3951,8717.49,2720.26,-6899.17,4887.58,21261.74,-6724.93,-7637.22,9666.59
1052102.3991,8700.75,2760.32,-6889.44,4867.79,21216.25,-6839.8,-7717.61,9577.8
1052102.4031,8688.74,2715.44,-6917.05,4868.22,21191.27,-6868.46,-7907.68,9577.9
1052102.4071,8667.66,2638.58,-6965.07,4849.24,21220.73,-6744.48,-7822.61,9655.43
1052102.4111,8665.37,2671.0,-6953.72,4830.89,21254.45,-6687.45,-7607.51,9658.05
1052102.4151,8715.96,2780.82,-6883.77,4862.98,21263.89,-6748.77,-7586.86,9614.18
1052102.4191,8754.45,2801.23,-6848.86,4913.71,21242.14,-6774.95,-7730.91,9623.43
1052102.4231,8723.31,2704.72,-6905.56,4902.36,21239.81,-6685.93,-7726.24,9693.29
1052102.4271,8733.56,2728.13,-6893.49,4901.22,21257.69,-6639.62,-7536.98,9682.94
1052102.4311,8805.18,2858.02,-6804.28,4940.7,21256.12,-6731.32,-7531.69,9611.32
1052102.4351,8827.97,2877.33,-6789.78,4948.09,21223.93,-6791.64,-7704.45,9600.12
1052102.4391,8812.24,2794.22,-6836.94,4939.6,21217.92,-6723.69,-7777.31,9666.97
1052102.4431,8816.39,2794.12,-6829.69,4949.86,21249.92,-6647.78,-7584.62,9682.8
1052102.4471,8862.54,2901.13,-6754.02,4984.47,21250.92,-6721.16,-7558.92,9631.54
1052102.4511,8880.43,2937.6,-6723.64,5008.08,21220.83,-6802.61,-7707.84,9594.39
1052102.4551,8872.08,2867.7,-6750.39,5026.87,21214.68,-6756.83,-7817.84,9647.94
1052102.4591,8874.08,2854.92,-6748.87,5040.12,21255.64,-6642.53,-7620.48,9702.35
1052102.463,8898.5,2937.36,-6703.43,5050.09,21248.96,-6708.77,-7566.98,9641.12
1052102.467,8901.5,2971.84,-6686.02,5053.9,21226.41,-6794.83,-7667.78,9591.29
1052102.471,8898.4,2916.1,-6708.24,5074.31,21222.98,-6758.74,-7799.96,9644.65
1052102.475,8873.37,2861.21,-6737.57,5070.64,21245.72,-6650.64,-7652.43,9697.96
1052102.479,8881.62,2930.12,-6688.69,5082.89,21239.43,-6700.37,-7595.59,9646.23
1052102.483,8896.54,2992.92,-6647.3,5103.45,21231.8,-6789.02,-7686.62,9597.06
1052102.487,8853.72,2910.76,-6697.23,5091.57,21202.28,-6807.85,-7882.64,9612.18
1052102.491,8814.0,2831.08,-6743.05,5086.37,21227.17,-6701.99,-7788.61,9672.55
1052102.495,8814.1,2877.47,-6715.73,5095.43,21247.29,-6716.2,-7679.32,9644.84
1052102.499,8830.6,2947.0,-6673.29,5113.79,21237.71,-6813.1,-7737.83,9587.67
1052102.503,8823.06,2913.52,-6676.77,5140.11,21216.3,-6827.55,-7934.43,9611.27
1052102.507,8762.5,2804.99,-6747.1,5114.22,21224.36,-6727.36,-7888.94,9671.36
1052102.511,8767.99,2844.76,-6722.59,5126.86,21265.37,-6688.69,-7707.36,9668.49
1052102.515,8780.77,2915.67,-6685.78,5128.24,21246.72,-6789.02,-7753.18,9599.83
1052102.519,8782.29,2895.16,-6702.28,5122.85,21235.47,-6818.34,-7904.48,9614.75
1052102.523,8748.48,2798.7,-6762.55,5101.68,21232.27,-6731.32,-7904.96,9676.74
1052102.527,8739.85,2805.52,-6762.79,5090.67,21256.83,-6679.49,-7700.06,9679.32
1052102.531,8775.04,2900.03,-6698.94,5110.79,21271.04,-6749.92,-7664.68,9625.58
1052102.535,8816.77,2942.28,-6658.17,5153.08,21296.93,-6755.59,-7748.41,9658.24
1052102.539,8694.36,2755.36,-6807.04,5048.75,21199.61,-6774.71,-7886.08,9630.54
1052102.543,8699.13,2756.64,-6803.7,5058.15,21229.6,-6683.26,-7693.67,9665.92
1052102.547,8719.59,2840.47,-6758.12,5062.49,21242.19,-6759.45,-7662.01,9604.5
1052102.551,8725.22,2861.55,-6747.53,5063.82,21215.82,-6836.37,-7807.16,9570.89
1052102.555,8706.0,2777.0,-6795.74,5056.76,21201.61,-6793.6,-7933.57,9623.81
1052102.559,8697.89,2745.29,-6816.15,5047.99,21232.61,-6690.36,-7766.53,9671.16
1052102.563,8713.87,2817.87,-6777.76,5047.85,21230.41,-6758.02,-7734.49,9611.46
1052102.567,8731.89,2863.6,-6750.11,5057.91,21215.58,-6844.0,-7859.52,9571.12
1052102.571,8718.54,2789.97,-6792.83,5055.71,21211.2,-6828.6,-8026.31,9614.18
1052102.575,8687.83,2718.74,-6841.04,5032.83,21229.46,-6734.23,-7925.85,9664.87
1052102.579,8711.96,2792.74,-6791.97,5052.76,21229.08,-6782.48,-7887.94,9616.19
1052102.583,8720.4,2841.09,-6764.94,5059.39,21204.47,-6896.16,-7995.46,9547.09
1052102.587,8709.48,2782.01,-6800.65,5053.09,21188.69,-6896.83,-8173.56,9584.48
1052102.5909,8700.85,2729.56,-6822.73,5078.51,21220.88,-6776.29,-8057.31,9658.1
1052102.5949,8708.81,2775.34,-6802.75,5054.76,21236.8,-6791.83,-7929.99,9621.67
1052102.5989,8709.15,2826.88,-6784.54,5015.66,21205.09,-6891.59,-7971.24,9551.91
1052102.6029,8698.75,2783.82,-6810.95,5023.19,21187.93,-6903.03,-8125.83,9577.51
1052102.6069,8665.23,2696.56,-6861.07,5015.42,21224.22,-6783.68,-8027.65,9647.47
1052102.6109,8672.81,2735.66,-6837.89,5019.95,21256.74,-6735.99,-7811.79,9640.41
1052102.6149,8697.46,2821.83,-6790.26,5026.29,21267.8,-6789.78,-7757.14,9605.22
1052102.6189,8709.29,2818.25,-6788.21,5035.4,21256.59,-6807.9,-7857.13,9618.81
1052102.6229,8671.71,2722.41,-6847.29,5013.66,21260.41,-6708.43,-7824.95,9686.71
1052102.6269,8667.8,2735.71,-6837.46,5009.75,21290.59,-6624.56,-7606.55,9718.47
1052102.6309,8691.79,2819.73,-6788.02,5018.9,21277.33,-6719.64,-7593.39,9626.06
1052102.6349,8686.97,2819.25,-6787.35,5025.72,21247.72,-6794.88,-7723.9,9586.29
1052102.6389,8668.14,2734.9,-6837.42,5021.24,21243.86,-6732.75,-7753.75,9635.26
1052102.6429,8680.25,2744.87,-6828.6,5028.11,21289.3,-6626.42,-7517.43,9682.23
1052102.6469,8734.66,2858.31,-6746.25,5065.11,21314.58,-6662.04,-7456.16,9663.2
1052102.6509,8727.36,2865.74,-6748.96,5057.53,21271.76,-6750.49,-7593.01,9617.14
1052102.6549,8714.49,2791.79,-6789.78,5059.39,21252.11,-6702.76,-7703.07,9671.64
1052102.6589,8693.03,2748.3,-6823.83,5032.97,21271.09,-6605.86,-7510.23,9705.5
1052102.6629,8696.13,2805.85,-6801.08,5015.9,21252.49,-6683.21,-7459.21,9630.49
1052102.6669,8706.52,2844.1,-6778.43,5020.29,21233.8,-6769.04,-7563.4,9586.57
1052102.6709,8687.78,2772.43,-6817.44,5019.47,21218.25,-6749.01,-7711.27,9625.01
1052102.6749,8700.51,2748.97,-6822.97,5037.69,21269.51,-6609.11,-7533.36,9707.64
1052102.6789,8706.19,2805.52,-6791.4,5036.31,21276.57,-6649.69,-7450.68,9656.14
1052102.6829,8695.56,2838.61,-6777.91,5018.9,21247.96,-6756.74,-7542.66,9586.62
1052102.6869,8690.26,2787.3,-6803.08,5021.91,21227.65,-6758.88,-7719.09,9616.71
1052102.6909,8669.57,2715.44,-6848.43,5009.65,21257.88,-6643.11,-7615.95,9695.72
1052102.6949,8693.36,2778.44,-6806.9,5023.15,21288.21,-6639.34,-7486.68,9681.18
1052102.6989,8717.82,2850.82,-6765.18,5033.68,21274.95,-6729.51,-7542.94,9620.38
1052102.7029,8686.16,2790.74,-6804.56,5020.57,21226.03,-6778.57,-7745.22,9609.13
1052102.7069,8673.48,2718.74,-6845.38,5020.33,21246.34,-6670.67,-7693.34,9683.9
1052102.7109,8685.16,2758.88,-6822.06,5023.91,21272.8,-6636.95,-7536.56,9687.04
1052102.7149,8699.13,2831.7,-6783.49,5025.96,21256.97,-6732.46,-7571.41,9619.0
1052102.7188,8699.37,2816.44,-6788.54,5031.44,21230.89,-6782.72,-7752.51,9610.94
1052102.7228,8680.49,2733.52,-6832.12,5028.01,21242.1,-6695.84,-7770.97,9683.42
1052102.7268,8680.25,2744.82,-6823.97,5028.82,21277.33,-6636.57,-7593.68,9697.82
1052102.7308,8708.91,2829.65,-6768.75,5045.61,21266.99,-6733.04,-7613.14,9625.1
1052102.7348,8706.95,2826.83,-6780.15,5024.96,21233.42,-6802.85,-7778.12,9595.01
1052102.7388,8678.68,2733.14,-6838.85,5008.27,21230.18,-6736.99,-7850.93,9656.38
1052102.7428,8674.0,2721.26,-6849.24,5002.59,21269.13,-6647.54,-7659.87,9689.14
1052102.7468,8689.12,2794.46,-6806.61,5007.36,21256.97,-6741.91,-7670.83,9614.61
1052102.7508,8698.32,2819.25,-6791.78,5014.37,21232.66,-6823.11,-7823.52,9578.13
1052102.7548,8682.78,2741.58,-6829.36,5020.05,21221.88,-6783.34,-7954.88,9632.06
1052102.7588,8668.33,2706.0,-6850.2,5014.32,21251.25,-6683.54,-7793.43,9677.55
1052102.7628,8697.7,2793.6,-6797.55,5029.54,21262.93,-6732.04,-7739.16,9630.16
1052102.7668,8722.26,2849.96,-6759.74,5043.6,21261.89,-6800.65,-7827.66,9600.69
1052102.7708,8684.06,2756.83,-6820.63,5018.0,21226.93,-6800.94,-7980.35,9619.52
1052102.7748,8658.93,2695.56,-6858.4,5005.55,21244.96,-6698.94,-7831.57,9661.77
1052102.7788,8671.57,2758.03,-6824.83,5002.69,21243.05,-6735.37,-7748.65,9612.9
1052102.7828,8687.59,2816.34,-6793.93,5005.55,21225.26,-6824.35,-7800.96,9559.2
1052102.7868,8687.74,2769.8,-6815.43,5017.42,21223.07,-6810.9,-7924.22,9597.68
1052102.7908,8690.07,2720.83,-6837.13,5031.59,21272.52,-6655.65,-7774.12,9712.03
1052102.7948,8679.53,2750.35,-6830.36,5012.47,21260.69,-6679.82,-7643.89,9662.39
1052102.7988,8699.47,2827.45,-6780.1,5030.25,21248.92,-6770.42,-7664.92,9601.88
1052102.8028,8686.26,2788.83,-6807.52,5014.18,21215.87,-6798.65,-7824.76,9607.41
1052102.8068,8670.38,2715.78,-6854.01,5000.35,21237.19,-6685.69,-7745.51,9683.04
1052102.8108,8693.84,2766.28,-6817.63,5018.52,21278.43,-6637.34,-7532.31,9684.37
1052102.8148,8717.11,2845.96,-6769.32,5032.44,21262.22,-6734.66,-7542.09,9609.65
1052102.8188,8704.85,2823.59,-6784.3,5028.3,21227.41,-6784.73,-7700.3,9596.3
1052102.8228,8687.64,2740.91,-6834.13,5016.52,21240.76,-6688.69,-7693.91,9673.41
1052102.8268,8688.93,2752.73,-6830.65,5012.51,21273.66,-6625.27,-7493.12,9690.24
1052102.8308,8721.07,2845.96,-6771.28,5033.3,21275.43,-6703.38,-7474.66,9630.01
1052102.8348,8723.4,2849.77,-6768.9,5036.74,21241.1,-6771.14,-7624.96,9603.55
1052102.8388,8682.06,2742.58,-6833.74,5012.42,21227.27,-6720.21,-7709.79,9655.57
1052102.8428,8675.24,2729.94,-6839.61,5007.55,21266.37,-6623.7,-7507.99,9697.2
1052102.8468,8698.42,2814.2,-6790.59,5018.43,21263.08,-6702.61,-7487.3,9630.4
1052102.8508,8714.96,2849.63,-6765.18,5036.69,21252.73,-6770.09,-7618.29,9603.22
1052102.8548,8690.93,2765.75,-6811.95,5030.06,21237.57,-6732.8,-7763.67,9647.37
1052102.8588,8680.77,2734.47,-6833.36,5024.0,21274.0,-6616.69,-7590.96,9704.35
1052102.8628,8677.01,2787.49,-6810.86,5003.74,21252.11,-6693.36,-7559.49,9625.96
1052102.8668,8690.5,2832.46,-6785.16,5010.99,21237.9,-6772.61,-7659.05,9581.61
1052102.8708,8674.91,2762.17,-6824.59,5005.17,21220.11,-6758.36,-7819.75,9614.04
1052102.8748,8666.66,2718.5,-6845.9,5006.7,21261.36,-6626.46,-7651.62,9685.95
1052102.8788,8683.73,2786.78,-6803.56,5016.28,21270.56,-6647.11,-7533.12,9651.28
1052102.8828,8705.04,2849.91,-6765.08,5028.87,21253.21,-6735.61,-7599.31,9593.82
1052102.8868,8692.84,2795.51,-6797.65,5022.48,21241.48,-6740.28,-7749.37,9620.48
1052102.8908,8672.76,2726.65,-6847.1,5008.94,21269.85,-6618.93,-7623.72,9692.77
1052102.8948,8695.08,2788.21,-6803.56,5025.77,21298.84,-6598.14,-7456.11,9688.52
1052102.8988,8701.47,2843.33,-6771.52,5016.14,21273.76,-6701.18,-7487.73,9619.52
1052102.9028,8680.25,2793.6,-6805.75,5004.6,21228.27,-6741.24,-7674.31,9611.13
1052102.9068,8668.38,2725.55,-6841.28,5010.46,21257.78,-6616.35,-7612.94,9708.21
1052102.9107,8693.46,2776.67,-6805.47,5025.86,21295.5,-6594.28,-7426.5,9692.05
1052102.9147,8709.1,2846.53,-6773.76,5019.57,21274.9,-6698.8,-7451.77,9612.04
1052102.9187,8695.13,2818.73,-6796.41,5007.94,21228.7,-6762.22,-7650.28,9592.77
1052102.9227,8674.29,2735.0,-6842.18,5005.84,21231.75,-6682.3,-7693.39,9658.48
1052102.9267,8681.25,2752.5,-6825.54,5021.33,21273.09,-6611.92,-7521.11,9688.09
1052102.9307,8704.81,2835.04,-6775.9,5022.24,21273.33,-6689.6,-7512.52,9626.25
1052102.9347,8687.59,2820.54,-6797.65,4999.21,21224.79,-6779.53,-7694.67,9573.89
1052102.9387,8672.33,2744.63,-6835.99,5005.98,21231.94,-6705.38,-7766.53,9641.41
1052102.9427,8674.77,2740.53,-6831.98,5012.66,21275.0,-6592.94,-7547.43,9699.01
1052102.9467,8695.98,2822.78,-6782.58,5026.05,21274.09,-6664.28,-7496.41,9631.68
1052102.9507,8707.81,2848.53,-6774.62,5022.43,21248.49,-6752.11,-7612.75,9588.05
1052102.9547,8690.26,2768.71,-6823.25,5010.84,21235.8,-6710.34,-7723.38,9641.65
1052102.9587,8674.62,2734.57,-6846.0,5004.69,21268.75,-6599.14,-7535.32,9695.72
1052102.9627,8694.08,2811.15,-6798.13,5015.61,21276.33,-6649.59,-7463.22,9645.51
1052102.9667,8706.24,2851.82,-6775.95,5016.61,21245.39,-6750.92,-7579.61,9587.58
1052102.9707,8701.95,2791.93,-6804.32,5023.81,21232.08,-6727.08,-7733.16,9633.16
1052102.9747,8696.22,2748.16,-6823.35,5031.54,21274.66,-6599.76,-7577.47,9704.69
1052102.9787,8690.5,2795.27,-6801.8,5017.9,21277.48,-6643.96,-7498.69,9651.23
1052102.9827,8711.91,2858.83,-6761.79,5028.3,21254.21,-6741.95,-7612.66,9598.64
1052102.9867,8684.83,2791.41,-6804.66,5012.08,21215.63,-6761.55,-7790.52,9607.55
1052102.9907,8677.63,2733.42,-6833.32,5013.09,21253.06,-6632.9,-7665.35,9691.76
1052102.9947,8678.34,2771.19,-6813.62,5006.41,21267.94,-6632.81,-7511.62,9664.25
1052102.9987,8695.98,2842.86,-6769.8,5016.38,21257.59,-6721.07,-7535.79,9606.89
1052103.0027,8696.03,2814.67,-6787.59,5016.38,21224.98,-6752.25,-7692.58,9611.89
1052103.0067,8683.83,2742.91,-6825.5,5021.53,21247.2,-6641.1,-7630.3,9692.24
1052103.0107,8664.99,2762.75,-6823.87,5010.03,21264.51,-6610.35,-7449.01,9685.47
1052103.0147,8698.99,2855.06,-6767.61,5030.2,21268.85,-6689.84,-7449.53,9633.26
1052103.0187,8716.82,2853.78,-6765.03,5035.73,21252.87,-6733.32,-7592.54,9623.29
1052103.0227,8664.66,2734.42,-6846.43,4993.25,21232.75,-6678.92,-7637.74,9660.53
1052103.0267,8667.99,2745.87,-6837.65,4999.07,21267.51,-6611.68,-7444.67,9680.56
1052103.0307,8691.69,2828.17,-6786.54,5008.17,21266.13,-6698.08,-7439.42,9614.42
1052103.0347,8700.51,2840.09,-6778.81,5013.28,21246.63,-6756.07,-7580.0,9601.17
1052103.0386,8682.4,2760.94,-6819.11,5013.13,21245.43,-6689.98,-7666.4,9670.64
1052103.0426,8659.36,2732.09,-6842.95,4989.39,21261.31,-6612.35,-7496.36,9691.05
1052103.0466,8682.11,2811.05,-6794.41,4999.07,21253.16,-6693.7,-7484.72,9624.05
1052103.0506,8688.78,2836.04,-6779.15,5004.36,21226.46,-6777.53,-7616.28,9580.18
1052103.0546,8687.64,2773.62,-6807.57,5015.47,21226.69,-6725.65,-7735.78,9649.47
1052103.0586,8690.22,2748.97,-6817.87,5023.24,21270.9,-6607.58,-7557.92,9707.79
1052103.0626,8692.55,2803.23,-6794.22,5010.89,21253.25,-6688.02,-7525.25,9634.07
1052103.0666,8706.86,2852.77,-6765.8,5020.0,21238.9,-6779.05,-7632.16,9582.14
1052103.0706,8692.55,2786.21,-6802.85,5019.57,21215.16,-6776.91,-7810.64,9609.03
1052103.0746,8674.24,2729.37,-6837.42,5009.41,21248.68,-6659.6,-7667.26,9674.36
1052103.0786,8689.4,2792.88,-6797.03,5018.14,21261.27,-6683.78,-7594.87,9648.23
1052103.0826,8728.22,2877.24,-6737.66,5048.85,21262.7,-6763.75,-7675.12,9611.42
1052103.0866,8707.24,2815.25,-6773.57,5039.07,21222.16,-6800.03,-7887.56,9604.98
1052103.0906,8672.57,2731.28,-6830.26,5016.52,21228.7,-6698.8,-7817.6,9654.48
1052103.0946,8680.25,2773.71,-6810.48,5013.42,21244.19,-6704.38,-7696.01,9628.49
1052103.0986,8697.27,2837.9,-6773.14,5017.14,21228.6,-6806.61,-7757.76,9563.11
1052103.1026,8695.56,2805.85,-6789.73,5018.85,21200.47,-6838.75,-7943.77,9573.08
1052103.1066,8672.81,2726.17,-6836.99,5010.99,21221.93,-6726.46,-7888.56,9655.29
1052103.1106,8677.72,2758.46,-6817.87,5016.18,21252.63,-6679.96,-7709.27,9668.02
1052103.1146,8703.52,2841.9,-6765.94,5033.49,21251.87,-6767.08,-7714.89,9604.5
1052103.1186,8713.91,2838.42,-6765.94,5040.07,21221.59,-6821.44,-7867.67,9584.71
1052103.1226,8697.65,2760.12,-6810.76,5031.3,21236.47,-6733.42,-7862.09,9652.04
1052103.1266,8668.71,2744.82,-6828.02,5010.99,21250.97,-6682.11,-7675.98,9654.33
1052103.1306,8713.01,2848.82,-6752.06,5048.51,21263.7,-6741.29,-7640.41,9616.76
1052103.1346,8722.59,2861.98,-6743.86,5058.24,21238.19,-6798.79,-7771.06,9594.49
1052103.1386,8668.85,2745.63,-6829.45,5008.56,21207.14,-6766.89,-7868.0,9623.05
1052103.1426,8666.8,2732.9,-6840.13,4998.11,21241.33,-6677.34,-7680.04,9662.58
1052103.1466,8688.88,2814.63,-6789.97,5009.03,21244.34,-6748.96,-7644.8,9608.89
1052103.1506,8703.52,2850.44,-6765.65,5019.71,21217.63,-6832.89,-7776.31,9566.17
1052103.1546,8686.59,2774.91,-6807.52,5014.32,21200.18,-6799.17,-7914.26,9613.71
1052103.1586,8684.11,2743.53,-6822.83,5020.52,21237.66,-6685.83,-7753.8,9674.22
1052103.1626,8701.42,2814.63,-6781.72,5030.54,21238.09,-6745.77,-7710.51,9613.42
1052103.1665,8704.52,2852.73,-6764.6,5029.49,21213.34,-6847.1,-7836.2,9552.67
1052103.1705,8685.4,2782.82,-6804.42,5020.05,21191.79,-6838.18,-8007.24,9587.96
1052103.1745,8698.51,2753.21,-6813.81,5036.64,21243.72,-6698.8,-7857.18,9678.03
1052103.1785,8709.57,2813.24,-6780.2,5037.26,21242.95,-6729.84,-7769.44,9630.01
1052103.1825,8713.2,2860.74,-6756.12,5032.02,21203.19,-6847.72,-7870.44,9546.38
1052103.1865,8730.98,2834.46,-6757.69,5055.81,21198.37,-6836.37,-8014.68,9588.0
1052103.1905,8698.42,2750.92,-6814.39,5031.82,21203.09,-6735.23,-7929.37,9647.51
