TimeStamp,AF7,FP1,FP2,AF8,O1,O2,I1,I2
1051596.7908,15731.43,5837.73,-3922.27,19227.46,28501.85,17911.63,12779.19,29026.65
1051596.7948,15741.21,5935.29,-3875.59,19225.79,29091.08,18455.08,15075.07,29436.97
1051596.7988,15760.85,6041.19,-3833.01,19226.36,29069.38,18455.27,15555.81,29497.1
1051596.8028,15749.27,5954.74,-3875.78,19211.49,28392.03,17850.35,13110.31,29053.6
1051596.8068,15703.2,5799.29,-3980.4,19165.57,28383.59,17830.99,12420.56,28990.37
1051596.8108,15699.67,5880.88,-3924.08,19189.36,29005.48,18390.94,14691.88,29397.68
1051596.8148,15786.08,6062.89,-3821.33,19223.84,29151.16,18535.43,15731.34,29548.55
1051596.8188,15788.27,6027.65,-3841.07,19228.75,28518.87,17947.53,13585.33,29099.18
1051596.8228,15711.26,5801.15,-3933.91,19219.59,28322.46,17774.11,12270.17,28937.87
1051596.8268,15709.78,5844.88,-3930.52,19201.28,28931.05,18335.01,14324.62,29369.07
1051596.8308,15779.21,6071.23,-3830.43,19211.34,29206.14,18597.18,15796.38,29621.37
1051596.8348,15804.2,6067.13,-3819.8,19226.55,28658.68,18076.99,14089.78,29248.05
1051596.8388,15778.11,5903.67,-3896.09,19226.03,28307.16,17758.09,12265.11,29010.54
1051596.8428,15742.59,5874.97,-3918.46,19196.08,28867.49,18274.79,13972.43,29394.25
1051596.8468,15775.06,6030.99,-3832.82,19210.29,29251.96,18641.43,15801.15,29692.7
1051596.8508,15801.48,6070.04,-3805.69,19232.04,28802.54,18250.42,14548.45,29463.63
1051596.8548,15768.2,5903.29,-3886.27,19215.97,28290.7,17723.47,12334.83,28922.56
1051596.8588,15703.06,5827.24,-3937.01,19190.5,28704.84,18094.06,13455.06,29165.41
1051596.8628,15725.71,5969.1,-3875.49,19176.15,29173.28,18515.3,15565.54,29463.96
1051596.8668,15756.37,6059.36,-3826.9,19196.46,28844.55,18215.85,14870.6,29270.22
1051596.8708,15764.91,5953.41,-3864.86,19230.56,28269.1,17700.58,12451.36,28896.57
1051596.8748,15750.6,5858.9,-3917.5,19211.34,28583.91,17985.39,13025.19,29081.92
1051596.8788,15770.72,5985.45,-3846.5,19204.52,29151.63,18507.77,15327.36,29489.57
1051596.8828,15787.56,6077.1,-3790.33,19220.74,28997.62,18370.87,15309.86,29416.37
1051596.8868,15772.15,5964.95,-3843.12,19213.06,28350.26,17786.7,12823.96,28988.32
1051596.8908,15733.77,5836.01,-3922.99,19188.6,28490.36,17917.16,12724.4,29059.03
1051596.8948,15745.45,5935.48,-3868.68,19200.28,29097.7,18477.16,15055.66,29487.09
1051596.8988,15779.88,6069.57,-3801.44,19209.43,29105.14,18493.8,15618.56,29547.6
1051596.9028,15777.4,5994.27,-3846.5,19203.33,28437.0,17861.32,13224.89,29058.03
1051596.9068,15737.58,5853.8,-3905.25,19206.1,28412.49,17831.38,12473.82,28993.66
1051596.9108,15776.83,5948.02,-3857.14,19210.29,29035.29,18420.27,14718.53,29477.93
1051596.9148,15821.13,6106.9,-3782.27,19215.25,29217.49,18620.83,15829.85,29764.7
1051596.9187,15802.81,6047.77,-3808.21,19226.46,28620.06,18053.34,13789.32,29340.41
1051596.9227,15736.58,5855.94,-3916.84,19176.06,28390.17,17802.19,12414.89,29025.46
1051596.9267,15697.05,5849.03,-3912.74,19148.97,28953.22,18304.64,14358.62,29320.67
1051596.9307,15721.51,5983.88,-3854.08,19161.99,29176.91,18508.58,15737.68,29485.18
1051596.9347,15781.45,6052.16,-3848.65,19185.02,28622.44,17983.77,14016.82,29083.68
1051596.9387,15784.17,5924.61,-3866.91,19233.37,28252.56,17662.29,12158.54,28826.76
1051596.9427,15768.96,5893.66,-3876.4,19211.82,28815.8,18175.22,13869.33,29212.19
1051596.9467,15788.32,6032.09,-3813.12,19199.56,29212.19,18549.59,15709.02,29534.63
1051596.9507,15794.95,6050.44,-3808.93,19198.47,28788.05,18158.68,14566.71,29268.46
1051596.9547,15750.46,5892.13,-3886.56,19196.27,28267.91,17688.13,12312.37,28895.14
1051596.9587,15736.06,5832.2,-3915.83,19198.85,28700.07,18100.84,13405.52,29190.97
1051596.9627,15720.66,5926.09,-3849.55,19175.48,29206.09,18572.0,15551.28,29567.58
1051596.9667,15723.13,6001.57,-3828.86,19166.14,28911.02,18298.34,14980.6,29401.59
1051596.9707,15787.51,5950.59,-3867.05,19221.45,28298.95,17731.81,12515.12,28951.03
1051596.9747,15801.48,5891.71,-3870.82,19247.01,28587.3,17999.84,12990.52,29120.78
1051596.9787,15816.45,6016.78,-3798.29,19235.18,29155.26,18532.28,15299.51,29565.86
1051596.9827,15830.04,6100.89,-3755.86,19230.94,29012.87,18390.94,15344.1,29470.02
1051596.9867,15801.81,5991.08,-3806.07,19242.1,28367.57,17819.36,12865.26,29076.72
1051596.9907,15771.92,5857.66,-3885.22,19218.16,28496.79,17939.71,12716.44,29148.68
1051596.9947,15780.83,5940.96,-3843.78,19189.5,29116.2,18516.88,15076.31,29612.88
1051596.9987,15774.44,6047.87,-3795.43,19175.44,29132.32,18523.6,15675.98,29635.96
1051597.0027,15786.6,5979.49,-3827.19,19198.56,28423.88,17838.67,13225.27,29027.37
1051597.0067,15756.9,5825.42,-3916.84,19203.95,28338.53,17738.44,12344.31,28846.89
1051597.0107,15773.11,5905.53,-3880.79,19184.45,28973.58,18345.98,14578.82,29356.15
1051597.0147,15798.24,6042.2,-3792.57,19185.69,29144.34,18497.47,15707.49,29498.15
1051597.0187,15791.18,5989.41,-3811.26,19195.42,28517.63,17919.16,13626.86,29094.32
1051597.0227,15766.48,5839.78,-3889.75,19191.93,28299.24,17718.46,12207.6,28929.28
1051597.0267,15761.28,5869.82,-3875.78,19179.06,28920.37,18314.51,14213.75,29423.62
1051597.0307,15782.31,6019.88,-3809.17,19187.36,29211.91,18589.21,15747.17,29648.59
1051597.0347,15784.79,6015.02,-3807.35,19187.26,28652.0,18033.94,14088.2,29183.01
1051597.0387,15793.52,5875.35,-3874.73,19203.0,28263.29,17669.97,12180.71,28870.78
1051597.0427,15808.39,5883.98,-3875.16,19221.69,28813.03,18191.15,13790.32,29265.07
1051597.0466,15829.61,6030.61,-3786.95,19215.82,29205.75,18565.8,15643.22,29578.12
1051597.0506,15824.99,6047.15,-3775.84,19202.71,28804.26,18206.74,14577.01,29373.94
1051597.0546,15786.94,5879.88,-3864.86,19199.52,28293.52,17724.71,12343.31,28964.81
1051597.0586,15755.94,5798.34,-3915.17,19176.91,28700.88,18086.86,13364.6,29191.83
1051597.0626,15765.34,5935.57,-3845.22,19175.48,29210.38,18553.4,15527.68,29584.46
1051597.0666,15779.4,5998.14,-3834.53,19160.94,28937.25,18314.79,15026.76,29474.12
1051597.0706,15753.65,5860.52,-3912.16,19149.4,28299.24,17702.01,12521.75,28913.45
1051597.0746,15731.91,5760.0,-3953.08,19151.59,28562.84,17953.11,12919.52,29093.41
1051597.0786,15768.86,5901.58,-3864.24,19183.59,29156.74,18515.88,15245.92,29576.78
1051597.0826,15791.37,5995.8,-3816.56,19181.06,29046.11,18395.62,15382.58,29492.24
1051597.0866,15776.11,5902.0,-3854.9,19199.66,28366.62,17775.44,12839.8,29003.34
1051597.0906,15761.52,5779.03,-3924.23,19194.61,28467.9,17881.54,12578.97,29071.05
1051597.0946,15762.81,5856.23,-3893.71,19173.53,29085.4,18442.2,14910.89,29479.03
1051597.0986,15758.42,5962.09,-3832.63,19178.68,29127.65,18494.56,15594.15,29570.63
1051597.1026,15770.48,5900.62,-3861.28,19177.39,28460.36,17878.58,13220.98,29105.0
1051597.1066,15737.06,5748.99,-3943.11,19171.67,28391.08,17796.66,12337.73,28992.08
1051597.1106,15751.98,5830.67,-3913.5,19164.18,29020.93,18370.58,14558.41,29408.65
1051597.1146,15782.26,5969.05,-3848.27,19148.5,29219.87,18559.12,15764.43,29600.1
1051597.1186,15755.7,5928.56,-3866.63,19159.27,28598.03,17979.0,13717.37,29184.11
1051597.1226,15749.27,5776.26,-3943.4,19162.56,28326.04,17715.07,12222.96,28912.02
1051597.1266,15759.99,5806.4,-3938.58,19142.11,28918.89,18241.93,14192.34,29285.67
1051597.1306,15787.65,5956.27,-3847.17,19150.59,29224.07,18529.7,15765.62,29541.78
1051597.1346,15787.89,5950.36,-3843.55,19167.0,28702.41,18054.77,14187.15,29226.69
1051597.1386,15755.99,5787.13,-3931.14,19159.8,28303.82,17697.96,12264.16,28945.16
1051597.1426,15725.28,5762.58,-3939.2,19148.3,28823.14,18181.37,13799.81,29313.23
1051597.1466,15749.84,5913.78,-3850.27,19142.82,29228.36,18575.19,15668.16,29645.26
1051597.1506,15793.56,5991.84,-3822.76,19164.9,28827.05,18219.28,14612.01,29419.14
1051597.1546,15785.98,5875.73,-3875.45,19200.71,28259.38,17699.39,12254.33,28984.12
1051597.1586,15768.43,5822.95,-3899.43,19193.46,28664.26,18042.61,13270.14,29158.07
1051597.1626,15795.85,5964.42,-3816.22,19194.75,29171.66,18506.15,15443.76,29544.31
1051597.1666,15808.63,6038.76,-3773.5,19208.67,28937.72,18292.48,15026.9,29438.4
1051597.1706,15783.12,5903.39,-3853.08,19186.55,28330.71,17734.1,12584.54,29011.21
1051597.1745,15752.27,5788.85,-3927.42,19164.66,28555.06,17932.23,12875.89,29109.43
1051597.1785,15772.06,5916.55,-3862.0,19153.79,29115.01,18442.92,15149.88,29463.44
1051597.1825,15775.11,6004.43,-3828.43,19129.52,29018.69,18353.94,15328.12,29450.32
1051597.1865,15756.75,5900.57,-3883.17,19129.14,28372.43,17778.11,12870.46,29066.18
1051597.1905,15735.72,5780.22,-3950.21,19133.47,28456.6,17874.29,12533.86,29134.9
1051597.1945,15752.75,5877.54,-3900.24,19121.22,29071.53,18434.81,14857.34,29557.9
1051597.1985,15784.41,6000.42,-3833.1,19128.42,29122.55,18461.09,15592.24,29562.67
1051597.2025,15779.59,5942.3,-3838.63,19170.14,28477.34,17867.52,13299.04,29107.53
1051597.2065,15767.58,5818.46,-3909.87,19166.23,28373.82,17768.86,12297.68,28997.33
1051597.2105,15759.18,5875.06,-3890.51,19136.38,29019.74,18360.28,14564.42,29462.72
1051597.2145,15776.45,6001.52,-3840.78,19117.07,29169.99,18458.75,15742.11,29477.5
1051597.2185,15778.83,5967.81,-3845.93,19129.76,28547.43,17912.96,13701.97,29113.73
1051597.2225,15727.66,5807.54,-3915.26,19132.43,28275.87,17674.93,12159.54,28927.57
1051597.2265,15710.88,5819.37,-3919.46,19119.65,28869.82,18212.13,14088.63,29305.27
1051597.2305,15776.59,5979.01,-3851.99,19111.92,29184.73,18505.05,15712.79,29547.89
1051597.2345,15806.72,6001.19,-3840.02,19138.72,28661.45,18021.59,14175.37,29210.38
1051597.2384,15773.58,5846.79,-3899.77,19156.51,28251.37,17639.59,12189.44,28906.54
1051597.2424,15749.12,5831.91,-3913.31,19142.3,28769.73,18118.29,13701.92,29249.67
1051597.2464,15794.23,5998.42,-3839.4,19125.99,29195.65,18511.49,15632.35,29566.58
1051597.2504,15817.07,6047.3,-3812.6,19141.68,28823.38,18164.83,14676.48,29349.38
1051597.2544,15781.79,5895.19,-3867.58,19148.45,28288.27,17673.88,12366.63,28976.21
1051597.2584,15758.71,5829.0,-3899.96,19156.03,28693.3,18039.85,13324.64,29199.51
1051597.2624,15780.98,5961.99,-3833.58,19157.65,29201.22,18523.55,15469.55,29610.4
1051597.2664,15793.37,6029.85,-3798.77,19152.21,28966.81,18320.61,15097.57,29516.37
1051597.2704,15781.69,5908.16,-3844.98,19169.76,28338.01,17733.05,12606.57,29053.74
1051597.2744,15741.73,5796.39,-3914.98,19152.55,28565.79,17914.92,12873.94,29081.92
1051597.2784,15736.82,5920.6,-3889.99,19113.4,29169.04,18453.17,15241.96,29507.59
1051597.2824,15797.19,6053.35,-3837.44,19123.75,29119.02,18451.55,15524.29,29664.23
1051597.2864,15798.19,5963.85,-3836.06,19147.68,28449.2,17838.38,13022.09,29167.13
1051597.2904,15756.51,5807.16,-3913.26,19127.28,28486.54,17836.43,12582.83,29029.37
1051597.2944,15761.0,5902.1,-3890.04,19111.35,29082.35,18385.46,14839.17,29462.77
1051597.2984,15775.78,6030.23,-3827.76,19107.82,29123.36,18405.54,15623.52,29438.69
1051597.3024,15799.19,5979.49,-3839.59,19144.16,28492.98,17810.97,13351.35,29002.1
1051597.3064,15762.86,5821.28,-3913.88,19147.35,28376.49,17712.55,12303.93,28915.12
1051597.3104,15760.81,5874.16,-3884.75,19132.43,28997.76,18295.24,14475.25,29366.69
1051597.3144,15783.93,6008.67,-3824.38,19121.32,29234.7,18514.02,15804.24,29587.08
1051597.3184,15794.76,5999.38,-3825.66,19146.25,28632.6,17961.69,13833.0,29188.45
1051597.3224,15747.02,5828.1,-3926.33,19120.22,28331.24,17688.66,12237.31,28957.85
1051597.3264,15732.81,5849.08,-3916.84,19102.05,28915.46,18224.0,14125.49,29352.1
1051597.3304,15765.95,6004.72,-3828.76,19109.54,29257.44,18543.87,15817.93,29626.37
1051597.3344,15800.67,6030.7,-3821.09,19137.0,28746.27,18073.13,14308.6,29288.1
1051597.3384,15757.66,5872.54,-3897.91,19142.2,28316.69,17681.55,12281.32,28959.61
1051597.3424,15719.99,5829.38,-3910.69,19121.36,28817.8,18146.9,13721.71,29296.21
1051597.3464,15769.87,5979.78,-3822.99,19133.95,29263.4,18556.98,15727.33,29636.53
1051597.3504,15813.83,6052.16,-3786.99,19165.28,28892.0,18232.35,14795.64,29459.58
1051597.3544,15775.97,5909.44,-3856.71,19167.0,28344.4,17744.26,12467.81,29105.38
1051597.3584,15757.37,5828.67,-3907.25,19138.39,28720.43,18070.41,13359.5,29272.51
1051597.3624,15786.89,5980.97,-3836.78,19136.57,29227.07,18531.52,15535.55,29635.15
1051597.3663,15798.86,6065.61,-3790.33,19156.74,28989.94,18304.59,15178.01,29449.66
1051597.3703,15769.44,5927.52,-3846.46,19161.61,28357.7,17733.86,12670.9,29016.93
1051597.3743,15735.68,5808.4,-3919.41,19128.47,28560.83,17907.91,12845.42,29088.88
1051597.3783,15745.78,5916.5,-3884.98,19100.0,29132.94,18401.2,15158.94,29451.14
1051597.3823,15768.2,6012.49,-3835.06,19102.05,29055.55,18340.35,15433.5,29439.64
1051597.3863,15762.66,5920.22,-3862.14,19136.76,28373.91,17731.81,12925.72,28982.55
1051597.3903,15725.42,5784.04,-3942.25,19126.08,28429.27,17769.1,12470.15,28988.89
1051597.3943,15744.4,5891.9,-3895.66,19103.67,29070.71,18363.53,14819.39,29451.56
1051597.3983,15771.87,6012.11,-3821.47,19117.98,29160.69,18451.79,15678.65,29556.56
1051597.4023,15772.54,5960.13,-3832.72,19150.88,28507.09,17852.93,13406.56,29117.78
1051597.4063,15734.34,5800.92,-3909.11,19146.59,28367.71,17721.7,12308.74,28986.51
1051597.4103,15744.07,5853.37,-3887.51,19130.42,28992.13,18296.39,14475.2,29420.71
1051597.4143,15778.92,6006.15,-3813.79,19141.87,29216.34,18509.29,15791.04,29617.03
1051597.4183,15784.46,5988.41,-3824.76,19150.21,28625.92,17968.23,13872.1,29214.1
1051597.4223,15773.82,5823.23,-3922.37,19134.48,28339.68,17693.9,12247.23,28985.55
1051597.4263,15753.18,5829.91,-3919.79,19126.04,28943.97,18246.8,14149.38,29421.71
1051597.4303,15779.21,5974.2,-3836.78,19138.62,29243.66,18574.05,15729.95,29744.82
1051597.4343,15785.27,5961.7,-3822.99,19158.56,28724.05,18068.98,14237.6,29340.18
1051597.4383,15766.57,5813.41,-3899.24,19160.08,28280.69,17633.82,12153.2,28923.42
1051597.4423,15733.67,5769.78,-3938.77,19126.13,28757.48,18054.58,13513.33,29187.68
1051597.4463,15754.42,5898.0,-3885.36,19112.02,29209.76,18485.45,15530.06,29576.26
1051597.4503,15742.02,5918.03,-3868.68,19104.77,28846.89,18143.99,14676.29,29333.31
1051597.4543,15700.39,5771.64,-3940.2,19114.31,28262.52,17605.12,12247.23,28866.72
1051597.4583,15685.99,5715.9,-3984.55,19114.88,28633.6,17940.86,13082.41,29090.74
1051597.4623,15750.79,5890.51,-3881.6,19136.34,29172.85,18459.61,15315.2,29535.87
1051597.4663,15799.62,5991.08,-3815.03,19170.43,28967.29,18260.96,15091.13,29390.96
1051597.4703,15772.11,5875.02,-3874.68,19167.52,28329.57,17662.86,12594.22,28929.57
1051597.4743,15743.11,5764.87,-3933.72,19136.72,28545.81,17871.33,12766.79,29078.06
1051597.4783,15752.6,5871.11,-3875.97,19133.14,29140.38,18424.7,15094.9,29514.98
1051597.4823,15779.5,5981.83,-3825.14,19148.5,29106.05,18394.38,15485.29,29529.24
1051597.4863,15760.09,5901.53,-3862.62,19143.01,28451.02,17805.48,13051.08,29105.52
1051597.4903,15731.24,5764.01,-3939.58,19123.37,28465.47,17822.51,12507.39,29072.19
1051597.4942,15724.14,5848.07,-3888.56,19141.77,29070.48,18364.62,14776.04,29462.29
1051597.4982,15778.45,5991.65,-3812.98,19152.93,29193.93,18474.63,15730.96,29587.61
1051597.5022,15792.42,5965.14,-3838.83,19161.75,28547.2,17881.59,13482.24,29140.86
1051597.5062,15755.99,5813.46,-3917.55,19150.45,28395.94,17771.06,12322.86,29062.75
1051597.5102,15757.28,5854.18,-3878.98,19152.12,29020.41,18332.15,14455.99,29486.95
1051597.5142,15779.07,5987.07,-3815.13,19148.26,29283.62,18539.96,15910.01,29653.7
1051597.5182,15771.44,5951.5,-3841.69,19141.82,28661.87,17982.53,13954.26,29240.33
1051597.5222,15732.0,5795.38,-3930.71,19110.97,28322.65,17677.93,12211.99,28981.88
1051597.5262,15744.97,5812.45,-3913.07,19117.88,28890.14,18201.54,13995.51,29348.52
1051597.5302,15765.86,5966.0,-3826.38,19136.62,29253.2,18526.32,15767.67,29588.42
1051597.5342,15777.11,5981.64,-3823.23,19145.92,28754.43,18069.03,14367.15,29277.76
1051597.5382,15757.47,5834.82,-3894.23,19151.5,28300.34,17657.09,12266.83,28947.6
1051597.5422,15750.84,5799.96,-3917.27,19138.72,28794.82,18120.91,13619.81,29280.28
1051597.5462,15769.63,5954.12,-3840.11,19135.14,29249.24,18516.4,15673.88,29565.05
1051597.5502,15785.84,6008.1,-3811.22,19148.45,28903.87,18202.78,14874.27,29361.06
1051597.5542,15763.0,5861.81,-3898.33,19135.76,28332.67,17691.42,12504.58,28956.32
1051597.5582,15714.46,5770.68,-3949.69,19113.21,28695.49,18027.21,13261.03,29198.46
1051597.5622,15753.65,5926.66,-3839.35,19127.09,29236.42,18520.88,15513.52,29588.46
1051597.5662,15800.86,6040.14,-3766.58,19169.86,29041.48,18338.92,15336.37,29507.83
1051597.5702,15788.6,5933.76,-3838.78,19176.44,28400.33,17755.84,12844.28,29052.79
1051597.5742,15748.93,5822.28,-3912.74,19155.7,28596.07,17963.46,12927.82,29227.4
1051597.5782,15764.62,5937.43,-3825.95,19184.93,29192.36,18513.92,15257.55,29675.01
1051597.5822,15778.5,6005.57,-3781.27,19172.38,29118.49,18425.66,15592.96,29567.53
1051597.5862,15766.86,5930.95,-3843.64,19147.64,28444.44,17794.09,13157.89,29068.28
1051597.5902,15747.93,5828.33,-3910.16,19145.92,28451.92,17793.42,12571.1,29018.88
1051597.5942,15753.8,5920.74,-3851.51,19148.16,29082.11,18365.0,14861.97,29469.64
1051597.5982,15782.17,6068.33,-3758.29,19162.7,29202.51,18488.7,15803.63,29616.69
1051597.6022,15783.03,6006.67,-3790.62,19165.71,28554.35,17893.32,13601.97,29155.26
1051597.6062,15742.07,5861.33,-3865.62,19166.04,28394.56,17752.22,12384.94,29024.32
1051597.6102,15752.65,5919.17,-3847.17,19145.54,29018.83,18350.46,14479.21,29514.98
1051597.6142,15787.65,6055.83,-3792.1,19130.33,29279.62,18585.64,15892.46,29738.95
1051597.6182,15789.13,6030.89,-3789.14,19150.93,28708.56,18022.97,14074.28,29244.38
1051597.6221,15747.12,5861.33,-3864.96,19153.74,28361.37,17723.61,12290.34,29027.89
1051597.6261,15736.1,5864.91,-3866.43,19139.72,28933.91,18236.64,14064.89,29372.08
1051597.6301,15772.25,6019.88,-3780.89,19148.73,29289.3,18536.24,15812.26,29567.82
1051597.6341,15782.88,6044.96,-3762.82,19172.86,28818.23,18113.57,14480.97,29298.12
1051597.6381,15771.96,5908.11,-3831.72,19186.07,28346.35,17710.26,12318.66,29005.29
1051597.6421,15743.02,5848.65,-3868.29,19163.09,28796.01,18105.7,13547.18,29243.66
1051597.6461,15759.95,5982.21,-3802.68,19151.88,29254.63,18510.87,15589.72,29548.12
1051597.6501,15773.39,6027.65,-3798.29,19141.34,28926.38,18214.28,14862.87,29406.93
1051597.6541,15756.51,5887.99,-3863.53,19148.5,28343.44,17705.35,12438.87,29027.04
1051597.6581,15726.28,5804.49,-3904.92,19141.53,28678.33,18006.52,13124.23,29189.88
1051597.6621,15717.32,5925.94,-3858.28,19112.45,29201.22,18476.77,15354.54,29556.8
1051597.6661,15756.32,6023.31,-3796.91,19138.05,29029.66,18328.1,15246.92,29480.51
1051597.6701,15745.45,5915.83,-3833.87,19153.98,28379.49,17735.34,12753.44,28995.42
1051597.6741,15740.44,5808.16,-3889.18,19156.27,28537.04,17888.64,12726.83,29079.44
1051597.6781,15750.98,5912.16,-3836.58,19154.5,29141.81,18456.7,15052.22,29566.2
1051597.6821,15782.26,6028.8,-3786.99,19149.97,29131.13,18459.18,15526.58,29627.57
1051597.6861,15769.2,5947.64,-3840.4,19146.02,28447.73,17816.16,13095.9,29066.61
1051597.6901,15734.05,5805.16,-3924.66,19114.26,28444.44,17786.55,12481.74,29002.96
1051597.6941,15734.25,5870.44,-3890.37,19105.25,29056.46,18349.46,14738.47,29443.08
1051597.6981,15754.51,5984.74,-3829.58,19096.9,29191.69,18486.65,15755.23,29614.74
1051597.7021,15743.45,5944.16,-3835.73,19133.09,28566.6,17930.75,13600.88,29236.46
1051597.7061,15713.93,5800.44,-3899.91,19155.17,28371.1,17759.61,12313.27,29055.36
1051597.7101,15718.37,5842.4,-3888.18,19139.72,28964.24,18304.02,14350.89,29426.2
1051597.7141,15754.42,5984.45,-3815.22,19138.48,29254.63,18581.58,15861.47,29698.33
1051597.7181,15757.61,5974.82,-3818.99,19142.68,28684.76,18040.13,14068.41,29294.3
1051597.7221,15746.55,5824.47,-3890.37,19167.57,28326.94,17731.86,12257.39,29043.82
1051597.7261,15756.51,5820.94,-3892.99,19157.7,28853.13,18198.78,13912.2,29326.25
1051597.7301,15779.26,5967.09,-3827.33,19131.71,29227.98,18532.23,15723.23,29566.43
1051597.7341,15780.5,5999.99,-3820.23,19130.95,28767.06,18115.24,14448.22,29280.05
1051597.7381,15742.97,5837.49,-3905.73,19126.51,28296.62,17683.46,12314.46,28940.16
1051597.7421,15732.96,5781.6,-3931.95,19124.99,28761.15,18120.0,13539.13,29287.53
1051597.7461,15747.98,5905.01,-3858.76,19131.23,29227.55,18541.62,15608.84,29627.47
1051597.75,15752.98,5946.35,-3848.89,19128.61,28895.81,18252.23,14890.29,29459.05
1051597.754,15736.63,5810.45,-3913.93,19145.44,28309.97,17695.48,12485.65,28961.19
1051597.758,15709.35,5709.55,-3959.47,19145.59,28640.7,18007.42,13110.5,29204.28
1051597.762,15701.44,5809.21,-3914.31,19106.34,29194.74,18529.51,15385.3,29676.97
1051597.766,15714.17,5891.94,-3904.44,19090.37,29016.55,18336.01,15286.88,29509.55
1051597.77,15724.71,5802.54,-3958.89,19111.21,28358.13,17718.94,12765.84,28996.8
1051597.774,15722.94,5693.67,-3982.26,19133.33,28518.01,17869.43,12720.73,29089.6
1051597.778,15739.73,5802.73,-3916.6,19147.54,29117.68,18419.98,15027.81,29534.39
1051597.782,15743.69,5913.21,-3867.01,19139.91,29102.38,18408.68,15511.13,29568.91
1051597.786,15731.34,5843.35,-3887.32,19148.4,28453.88,17823.89,13142.3,29138.23
1051597.79,15717.94,5728.67,-3949.59,19133.62,28423.69,17840.77,12379.41,29208.62
1051597.794,15714.17,5811.93,-3918.27,19106.44,29013.68,18356.75,14600.23,29537.4
1051597.798,15736.49,5956.03,-3833.87,19116.02,29167.23,18464.38,15663.86,29600.67
1051597.802,15739.92,5917.93,-3853.89,19120.5,28540.76,17878.92,13567.74,29150.39
1051597.806,15708.93,5776.6,-3924.8,19113.02,28321.79,17675.59,12224.63,28951.98
1051597.81,15720.75,5825.66,-3904.63,19098.24,28918.94,18229.68,14225.34,29387.24
1051597.814,15750.74,5994.13,-3832.87,19102.62,29190.93,18483.93,15709.07,29612.69
1051597.818,15767.24,6008.15,-3816.32,19121.79,28639.84,17978.43,13988.69,29235.89
1051597.822,15749.31,5871.39,-3864.05,19150.31,28288.8,17650.65,12181.14,28960.61
1051597.826,15741.68,5869.63,-3874.02,19137.58,28849.99,18160.54,13869.19,29341.03
1051597.83,15752.46,6002.62,-3815.46,19111.06,29219.11,18496.8,15699.34,29629.28
1051597.834,15773.44,6031.28,-3795.1,19134.24,28768.54,18070.13,14488.32,29299.17
1051597.838,15755.37,5886.75,-3860.86,19142.53,28285.46,17647.89,12284.47,28979.02
1051597.842,15723.61,5828.38,-3908.25,19100.72,28724.1,18052.87,13425.26,29264.41
1051597.846,15738.16,5958.84,-3834.2,19094.52,29190.16,18444.97,15518.81,29534.3
1051597.85,15765.72,6014.44,-3817.65,19074.82,28893.57,18183.23,14917.61,29389.81
1051597.854,15758.56,5897.76,-3882.31,19096.47,28298.05,17655.61,12489.65,28968.81
1051597.858,15718.41,5813.65,-3883.41,19138.15,28611.9,17959.64,13050.46,29205.47
1051597.862,15703.92,5935.53,-3822.61,19127.7,29154.97,18437.44,15317.11,29584.22
1051597.866,15755.51,6035.19,-3790.05,19120.6,29010.25,18295.15,15334.32,29503.06
1051597.87,15785.27,5948.64,-3828.19,19137.58,28354.36,17728.38,12854.39,29062.8
1051597.874,15753.41,5840.3,-3890.8,19127.32,28488.21,17865.56,12731.74,29162.12
1051597.8779,15745.4,5929.14,-3844.79,19108.68,29082.3,18396.0,15038.78,29565.0
1051597.8819,15770.77,6037.57,-3789.38,19119.6,29087.36,18400.19,15595.39,29601.24
1051597.8859,15758.42,5960.47,-3831.82,19126.85,28441.81,17789.84,13270.52,29110.58
1051597.8899,15728.28,5818.99,-3919.27,19092.94,28415.49,17806.25,12527.99,29172.23
1051597.8939,15730.24,5874.78,-3894.76,19068.2,28995.9,18364.96,14668.42,29643.44
1051597.8979,15757.71,6008.34,-3803.21,19099.67,29099.18,18419.03,15651.94,29558.95
1051597.9019,15754.75,5984.12,-3810.17,19128.94,28489.97,17827.51,13607.27,29080.63
1051597.9059,15724.04,5834.25,-3887.84,19129.42,28289.37,17638.54,12266.59,28925.57
1051597.9099,15728.0,5858.76,-3878.4,19113.26,28884.27,18192.58,14251.47,29368.69
1051597.9139,15764.14,6004.38,-3800.92,19115.88,29175.95,18469.0,15774.2,29615.64
1051597.9179,15766.86,5995.61,-3808.45,19123.37,28618.34,17966.56,14070.08,29230.22
1051597.9219,15720.75,5828.67,-3894.19,19115.12,28241.69,17619.56,12208.89,28933.48
1051597.9259,15710.26,5821.71,-3900.81,19109.25,28787.09,18108.51,13826.51,29290.92
1051597.9299,15754.37,5975.87,-3825.24,19103.67,29199.08,18486.22,15720.27,29615.98
1051597.9339,15761.28,6001.62,-3812.17,19108.25,28756.0,18096.26,14557.41,29368.12
1051597.9379,15748.07,5866.48,-3869.34,19129.9,28271.73,17687.75,12359.72,29075.58
1051597.9418,15726.85,5812.45,-3900.15,19114.45,28688.62,18061.45,13435.22,29308.85
1051597.9458,15746.64,5946.54,-3837.54,19096.23,29161.17,18455.7,15541.56,29576.02
1051597.9498,15761.04,6000.38,-3813.22,19094.37,28882.03,18202.5,15006.64,29440.55
1051597.9538,15730.76,5873.35,-3874.49,19108.58,28295.57,17676.5,12587.17,29033.62
1051597.9578,15706.87,5777.5,-3945.21,19077.02,28578.0,17932.37,13058.38,29192.69
1051597.9618,15721.42,5902.48,-3892.14,19057.42,29151.49,18439.82,15353.4,29598.29
1051597.9658,15746.26,6008.58,-3833.29,19090.08,29029.23,18353.13,15392.26,29623.32
1051597.9698,15735.82,5919.79,-3844.55,19125.51,28404.76,17800.81,12961.2,29213.24
1051597.9738,15709.64,5793.29,-3908.92,19123.75,28493.88,17886.02,12709.38,29193.69
1051597.9778,15718.32,5879.69,-3878.55,19081.59,29074.91,18349.41,14988.47,29474.4
1051597.9818,15750.7,6012.3,-3805.73,19101.34,29107.14,18357.66,15616.8,29490.9
1051597.9858,15737.92,5939.06,-3830.67,19112.4,28426.84,17768.58,13224.7,29056.46
1051597.9898,15715.98,5801.15,-3915.41,19102.24,28363.61,17708.64,12387.56,28983.79
1051597.9938,15716.94,5853.94,-3877.54,19102.91,28991.18,18264.68,14603.38,29424.58
1051597.9978,15740.92,6000.33,-3817.42,19100.95,29163.22,18441.15,15711.74,29620.51
1051598.0018,15727.66,5955.98,-3838.44,19111.92,28560.12,17900.37,13701.35,29230.5
1051598.0058,15697.15,5808.07,-3900.24,19118.17,28328.23,17681.41,12307.03,28995.42
1051598.0098,15726.71,5859.18,-3880.6,19116.31,28922.08,18222.95,14281.8,29433.35
1051598.0138,15750.22,5996.94,-3820.61,19094.37,29190.35,18473.2,15766.24,29674.68
1051598.0178,15760.52,5997.13,-3812.36,19107.25,28673.56,18003.85,14194.35,29331.26
1051598.0218,15723.37,5833.82,-3898.33,19099.09,28283.89,17653.61,12305.64,29052.4
1051598.0258,15693.14,5803.97,-3925.42,19079.12,28787.9,18095.64,13844.54,29374.32
1051598.0298,15732.19,5954.08,-3837.4,19086.65,29179.72,18450.55,15698.72,29648.02
1051598.0338,15740.35,5977.35,-3816.13,19104.24,28781.37,18067.74,14648.73,29340.56
1051598.0378,15704.87,5828.14,-3897.95,19099.09,28285.22,17626.96,12438.68,29018.83
1051598.0418,15689.09,5776.5,-3931.19,19093.28,28683.33,18006.95,13401.61,29339.56
1051598.0458,15705.3,5909.87,-3866.43,19076.06,29173.9,18456.7,15504.36,29731.28
1051598.0498,15709.4,5964.66,-3860.19,19058.75,28897.77,18151.91,15024.47,29416.23
1051598.0538,15708.97,5861.71,-3905.63,19077.83,28303.82,17605.21,12596.08,28978.64
1051598.0578,15688.52,5766.2,-3948.64,19071.3,28583.63,17882.68,13015.08,29234.79
1051598.0618,15729.38,5910.44,-3866.1,19101.34,29100.42,18337.25,15158.89,29533.2
1051598.0658,15769.05,6024.7,-3800.06,19121.08,28986.51,18219.19,15267.28,29492.05
1051598.0697,15743.88,5921.84,-3850.27,19127.42,28357.18,17651.85,12860.82,29045.49
1051598.0737,15704.92,5781.6,-3930.47,19109.25,28454.74,17728.57,12627.13,29047.25
1051598.0777,15714.65,5871.54,-3887.65,19089.89,29051.12,18268.64,14899.54,29488.14
1051598.0817,15736.25,5980.68,-3837.54,19084.84,29103.33,18318.04,15595.39,29566.39
1051598.0857,15702.06,5890.75,-3876.35,19076.83,28451.83,17734.34,13315.39,29115.49
1051598.0897,15665.68,5750.13,-3947.31,19080.69,28374.82,17680.36,12432.62,29068.43
1051598.0937,15669.87,5812.31,-3930.28,19057.13,28963.9,18207.46,14565.52,29489.85
1051598.0977,15715.51,5956.79,-3847.17,19064.33,29141.72,18373.3,15704.59,29640.58
1051598.1017,15730.67,5930.66,-3856.71,19084.41,28551.39,17834.81,13745.02,29238.28
1051598.1057,15695.62,5778.6,-3945.49,19081.45,28316.74,17628.2,12316.23,29080.01
1051598.1097,15710.98,5812.79,-3922.99,19083.41,28891.42,18159.25,14203.69,29495.05
1051598.1137,15734.1,5957.89,-3829.86,19089.13,29192.26,18410.73,15755.8,29701.62
1051598.1177,15728.67,5956.56,-3827.76,19100.1,28702.07,17964.32,14265.49,29403.02
1051598.1217,15715.12,5807.11,-3901.1,19114.21,28313.02,17581.85,12360.29,29025.03
1051598.1257,15666.87,5761.81,-3952.79,19074.25,28794.63,18006.9,13861.71,29310.33
1051598.1297,15687.28,5904.25,-3886.41,19063.43,29196.5,18388.65,15731.05,29667.24
1051598.1337,15706.92,5950.26,-3868.25,19075.78,28814.75,18041.76,14720.97,29459.0
1051598.1377,15680.7,5814.22,-3927.71,19071.92,28292.23,17554.33,12463.38,29017.88
1051598.1417,15654.38,5759.53,-3950.79,19074.11,28675.85,17898.37,13413.53,29250.77
1051598.1457,15695.19,5899.95,-3873.21,19068.67,29168.08,18357.14,15531.11,29666.24
1051598.1497,15721.85,5973.77,-3844.21,19065.43,28905.78,18085.43,15112.97,29439.12
1051598.1537,15715.17,5868.63,-3896.81,19063.52,28328.23,17563.97,12717.58,29033.76
1051598.1577,15682.89,5775.69,-3955.79,19054.84,28572.32,17771.72,13046.98,29153.92
1051598.1617,15694.48,5892.71,-3882.98,19080.31,29099.99,18250.37,15227.75,29519.47
1051598.1657,15712.69,5977.54,-3834.2,19084.22,29011.87,18187.43,15411.9,29531.53
1051598.1697,15716.51,5895.9,-3863.86,19090.61,28385.64,17624.81,13001.82,29107.14
1051598.1737,15681.41,5769.02,-3932.33,19086.51,28464.89,17693.38,12697.41,29111.87
1051598.1777,15681.84,5853.94,-3898.95,19064.81,29057.89,18228.15,14952.47,29532.63
1051598.1817,15706.83,5977.49,-3835.73,19072.01,29110.05,18271.97,15674.97,29589.8
1051598.1857,15705.11,5920.03,-3867.91,19076.02,28468.18,17688.94,13395.55,29128.51
1051598.1897,15692.09,5775.36,-3941.44,19073.39,28377.35,17610.5,12455.13,29035.71
1051598.1937,15702.01,5854.37,-3896.95,19084.98,28987.98,18166.54,14604.76,29500.77
1051598.1976,15714.65,5988.03,-3831.24,19078.11,29194.5,18344.07,15834.0,29685.64
1051598.2016,15706.73,5949.69,-3842.78,19072.68,28621.58,17828.37,13900.33,29325.44
1051598.2056,15672.97,5793.38,-3926.95,19068.48,28373.86,17606.17,12412.93,29134.18
1051598.2096,15696.1,5829.62,-3910.59,19060.9,28913.88,18073.85,14237.69,29446.18
1051598.2136,15738.35,5983.97,-3828.81,19059.85,29223.02,18342.31,15833.19,29670.67
1051598.2176,15766.24,6003.09,-3817.46,19073.44,28719.81,17896.42,14324.38,29368.59
1051598.2216,15753.46,5861.95,-3888.51,19070.29,28305.15,17532.73,12342.36,29086.83
1051598.2256,15736.72,5832.34,-3910.26,19043.73,28783.85,17951.11,13749.65,29326.25
1051598.2296,15756.75,5967.52,-3844.83,19026.9,29185.97,18311.79,15644.03,29630.09
1051598.2336,15787.36,6024.41,-3809.4,19050.74,28796.2,17934.99,14691.16,29347.66
1051598.2376,15769.44,5899.14,-3862.91,19069.48,28273.06,17468.84,12414.27,28977.92
1051598.2416,15756.28,5852.51,-3892.99,19064.71,28652.0,17800.57,13306.33,29188.02
1051598.2456,15765.48,5982.16,-3831.01,19042.4,29159.6,18254.71,15473.75,29550.7
1051598.2496,15784.55,6058.69,-3778.27,19072.77,28941.83,18055.97,15146.07,29441.03
1051598.2536,15773.39,5945.3,-3819.18,19104.15,28343.73,17534.5,12723.4,29063.66
1051598.2576,15735.06,5843.12,-3863.48,19094.85,28556.3,17737.96,12964.92,29217.06
1051598.2616,15762.57,5973.01,-3805.35,19086.08,29107.91,18233.97,15211.73,29585.46
1051598.2656,15780.59,6070.76,-3760.1,19091.23,29029.42,18170.93,15440.61,29573.59
1051598.2696,15761.33,5971.34,-3812.55,19093.56,28384.45,17591.48,13010.88,29103.66
1051598.2736,15740.06,5834.77,-3885.7,19093.66,28454.93,17657.9,12633.47,29140.86
1051598.2776,15744.16,5913.31,-3843.31,19086.03,29064.8,18237.55,14910.37,29693.27
1051598.2816,15754.27,6027.17,-3789.85,19068.91,29126.89,18255.9,15705.4,29662.09
1051598.2856,15747.45,5967.19,-3812.41,19083.55,28498.18,17665.67,13476.33,29211.19
1051598.2896,15713.31,5820.85,-3900.1,19070.68,28382.73,17559.96,12442.73,29102.57
1051598.2936,15698.39,5853.8,-3904.2,19033.43,28975.11,18047.72,14561.85,29398.64
1051598.2976,15718.75,5983.54,-3850.89,19013.07,29171.42,18240.07,15778.59,29586.22
1051598.3016,15726.95,5956.6,-3863.67,19026.23,28567.13,17722.66,13807.39,29231.36
1051598.3056,15702.58,5805.35,-3920.84,19061.62,28289.08,17462.3,12224.72,28959.75
1051598.3096,15697.39,5826.38,-3896.57,19073.87,28868.58,17970.71,14089.97,29333.21
1051598.3136,15731.19,5976.96,-3828.72,19048.93,29189.64,18277.12,15701.25,29618.17
1051598.3176,15742.78,5983.64,-3829.05,19059.14,28717.38,17862.37,14290.72,29352.62
1051598.3216,15730.81,5846.21,-3888.46,19078.07,28309.25,17496.68,12304.98,29061.75
1051598.3255,15698.01,5795.86,-3920.98,19046.26,28780.18,17903.95,13699.49,29328.45
1051598.3295,15730.34,5945.59,-3844.36,19044.31,29182.44,18263.87,15582.37,29627.33
1051598.3335,15748.41,5990.79,-3821.66,19064.91,28830.72,17939.62,14718.44,29401.97
1051598.3375,15737.06,5862.95,-3878.26,19091.18,28316.93,17475.37,12448.98,29042.25
1051598.3415,15699.67,5774.16,-3951.5,19040.92,28684.91,17796.33,13309.91,29251.77
1051598.3455,15693.43,5878.97,-3912.88,19008.64,29165.56,18229.3,15419.44,29602.91
1051598.3495,15722.42,5941.77,-3861.48,19042.26,28948.22,18035.84,15117.41,29489.38
1051598.3535,15709.55,5824.33,-3918.6,19050.89,28340.39,17503.88,12667.47,29091.08
1051598.3575,15685.66,5714.18,-3984.31,19043.4,28547.91,17716.89,12827.78,29275.71
1051598.3615,15704.82,5812.12,-3938.77,19031.91,29107.19,18227.29,15038.11,29701.86
1051598.3655,15709.12,5888.89,-3899.77,19033.1,29030.8,18100.22,15333.85,29512.5
1051598.3695,15677.93,5777.88,-3944.45,19043.88,28384.31,17519.0,12911.32,29070.43
1051598.3735,15645.98,5641.37,-4025.84,19031.91,28403.43,17549.33,12386.99,29078.53
1051598.3775,15652.71,5733.06,-3988.93,19013.45,28997.71,18050.05,14622.12,29422.81
1051598.3815,15683.27,5881.45,-3907.78,19027.43,29106.14,18148.04,15501.64,29541.26
1051598.3855,15708.11,5835.06,-3926.23,19038.82,28481.3,17592.24,13297.51,29137.23
1051598.3895,15672.73,5672.12,-4027.08,19011.55,28369.24,17493.2,12272.74,29036.29
1051598.3935,15651.13,5706.74,-4005.62,18989.95,28956.42,18029.5,14344.79,29478.36
1051598.3975,15684.03,5850.79,-3934.53,18998.2,29165.8,18202.55,15640.26,29603.39
1051598.4015,15697.58,5843.4,-3928.18,19035.06,28592.26,17683.46,13780.79,29204.66
1051598.4055,15669.54,5699.59,-3980.54,19049.41,28330.04,17449.0,12202.55,29015.83
1051598.4095,15662.15,5712.99,-3978.92,19036.68,28885.32,17936.8,14004.14,29381.37
1051598.4135,15686.66,5855.37,-3911.11,19020.7,29220.63,18222.19,15673.45,29643.4
1051598.4175,15701.44,5876.68,-3897.95,19026.14,28749.42,17811.35,14284.28,29380.04
1051598.4215,15679.74,5733.06,-3969.86,19026.42,28317.98,17415.14,12291.72,28989.51
1051598.4255,15664.87,5712.99,-3986.93,19012.36,28809.55,17873.53,13691.86,29342.13
1051598.4295,15684.03,5880.93,-3899.96,19006.68,29241.95,18267.82,15662.1,29679.02
1051598.4335,15706.4,5949.31,-3865.05,19027.52,28933.39,17994.22,14927.44,29528.53
1051598.4375,15687.75,5821.37,-3927.76,19038.49,28405.57,17517.38,12674.0,29116.78
1051598.4415,15673.11,5759.86,-3973.72,19016.32,28732.35,17789.89,13418.49,29243.76
1051598.4455,15687.13,5884.22,-3895.24,19010.78,29240.33,18214.75,15591.34,29568.96
1051598.4495,15717.7,5975.63,-3833.82,19034.1,29013.64,18031.74,15301.04,29488.38
1051598.4534,15714.5,5879.45,-3881.22,19050.89,28400.85,17486.1,12858.34,29055.31
1051598.4574,15681.84,5769.59,-3953.65,19014.22,28600.51,17652.51,13002.21,29140.76
1051598.4614,15687.42,5878.16,-3899.19,19008.02,29184.92,18179.94,15285.68,29604.82
1051598.4654,15717.22,5995.66,-3828.38,19021.85,29138.62,18147.28,15636.88,29624.04
1051598.4694,15715.79,5905.3,-3865.19,19032.05,28491.88,17563.3,13237.38,29147.01
1051598.4734,15694.1,5775.5,-3937.2,19040.3,28529.36,17596.87,12723.97,29156.97
1051598.4774,15708.31,5865.29,-3903.2,19019.32,29120.16,18105.18,14939.21,29536.58
1051598.4814,15717.75,5978.01,-3854.32,19010.93,29207.61,18180.09,15817.45,29624.56
1051598.4854,15717.79,5919.89,-3885.79,19011.64,28583.82,17618.23,13643.7,29183.63
1051598.4894,15674.35,5761.48,-3969.05,18998.05,28442.39,17486.34,12510.44,29068.28
1051598.4934,15665.58,5810.79,-3940.3,18993.09,29031.33,18005.66,14562.75,29459.29
1051598.4974,15692.43,5948.78,-3868.2,18998.05,29271.94,18232.82,15917.88,29689.89
1051598.5014,15700.77,5936.67,-3873.3,19018.7,28715.66,17760.8,14111.66,29378.75
1051598.5054,15686.47,5783.46,-3936.58,19036.68,28421.74,17504.93,12463.0,29160.5
1051598.5094,15667.63,5781.46,-3953.55,18998.58,28970.2,17959.41,14226.58,29448.32
1051598.5134,15695.72,5935.15,-3875.59,18989.47,29305.08,18279.36,15876.58,29748.4
1051598.5174,15715.89,5959.56,-3859.33,19007.35,28834.97,17827.94,14568.62,29326.49
1051598.5214,15695.76,5813.84,-3943.3,18992.43,28381.21,17434.17,12479.02,29010.39
1051598.5254,15672.88,5769.63,-3980.97,18973.35,28849.56,17827.32,13756.13,29269.51
1051598.5294,15699.05,5904.96,-3893.33,18995.48,29271.8,18196.54,15707.54,29587.42
1051598.5334,15722.8,5973.86,-3838.97,19038.25,28917.03,17930.61,14881.52,29428.53
1051598.5374,15690.09,5833.29,-3905.39,19045.31,28373.77,17435.12,12557.22,28996.66
1051598.5414,15658.43,5746.89,-3962.56,19025.8,28729.78,17746.26,13309.19,29234.32
1051598.5454,15673.59,5878.02,-3896.43,19022.94,29236.61,18205.36,15428.83,29627.52
1051598.5494,15698.86,5965.04,-3848.74,19034.2,29052.02,18040.18,15263.03,29528.81
1051598.5534,15690.33,5859.8,-3889.75,19049.98,28449.4,17497.35,12857.92,29086.02
1051598.5574,15666.63,5750.61,-3950.55,19046.74,28626.49,17660.48,12916.47,29186.63
1051598.5614,15676.02,5853.75,-3911.69,19016.55,29184.34,18162.97,15142.54,29627.66
1051598.5654,15712.88,5970.1,-3848.65,19034.82,29169.37,18141.18,15607.26,29643.49
1051598.5694,15693.48,5886.94,-3877.4,19044.45,28521.83,17551.52,13223.22,29136.57
1051598.5734,15656.85,5750.94,-3955.7,19026.23,28516.73,17549.8,12623.45,29126.7
1051598.5774,15656.62,5825.81,-3928.95,18998.29,29101.52,18061.12,14819.19,29552.99
1051598.5813,15694.1,5957.65,-3858.66,19001.44,29225.02,18182.9,15781.98,29702.0
1051598.5853,15692.43,5910.02,-3872.16,19022.18,28642.32,17646.55,13721.85,29303.36
1051598.5893,15677.26,5776.12,-3944.92,19040.87,28466.9,17494.73,12520.17,29190.11
1051598.5933,15685.94,5822.37,-3916.5,19037.34,28997.76,17979.0,14411.88,29538.92
1051598.5973,15700.63,5953.46,-3848.22,19018.13,29248.05,18130.78,15846.87,29571.49
1051598.6013,15696.96,5930.38,-3854.66,19043.02,28702.45,17629.77,14099.41,29187.16
1051598.6053,15672.11,5786.47,-3941.35,19042.49,28367.43,17359.78,12347.41,28992.13
1051598.6093,15661.62,5786.85,-3954.6,19009.74,28903.06,17818.74,14031.41,29343.7
1051598.6133,15694.57,5939.87,-3874.73,19008.59,29264.64,18127.49,15789.08,29618.22
1051598.6173,15718.18,5987.84,-3823.76,19047.07,28824.95,17733.48,14513.26,29344.23
1051598.6213,15700.63,5845.55,-3880.98,19050.89,28366.24,17335.7,12405.49,29008.96
1051598.6253,15673.21,5790.28,-3923.8,19022.9,28817.56,17737.44,13655.09,29316.86
1051598.6293,15699.2,5932.95,-3846.98,19031.72,29274.85,18146.52,15683.13,29692.51
1051598.6333,15724.57,5990.98,-3823.33,19039.54,28958.28,17864.66,14973.31,29499.01
1051598.6373,15683.32,5852.8,-3901.53,19033.24,28403.09,17363.5,12632.28,29065.9
1051598.6413,15665.87,5768.73,-3952.55,19014.98,28737.64,17665.82,13315.11,29300.26
1051598.6452,15687.13,5894.95,-3878.64,19022.66,29261.35,18130.11,15494.3,29714.49
1051598.6492,15689.42,5966.33,-3848.36,19024.28,29081.16,17940.05,15376.24,29534.87
1051598.6532,15673.83,5869.82,-3899.15,19025.76,28475.86,17398.55,12969.3,29124.12
1051598.6572,15658.67,5772.35,-3943.68,19021.85,28635.27,17555.33,12941.55,29228.64
1051598.6612,15690.61,5883.84,-3893.71,19004.35,29196.46,18031.27,15192.89,29569.72
1051598.6652,15721.66,6003.43,-3836.11,19019.94,29180.01,18004.04,15688.23,29556.85
1051598.6692,15718.03,5931.09,-3867.25,19031.67,28512.62,17425.54,13281.87,29126.6
1051598.6732,15692.05,5793.05,-3935.29,19032.96,28507.28,17439.18,12633.52,29139.9
1051598.6772,15688.09,5860.62,-3892.61,19029.81,29071.95,17946.39,14766.07,29530.19
1051598.6812,15712.79,5995.13,-3819.85,19032.29,29209.05,18056.63,15791.42,29653.6
1051598.6852,15708.07,5948.45,-3853.23,19035.25,28604.46,17496.16,13717.84,29190.11
1051598.6892,15683.18,5797.29,-3928.14,19036.58,28411.25,17322.07,12437.49,29015.88
1051598.6932,15683.32,5828.62,-3920.51,19013.84,28985.93,17837.76,14419.51,29441.98
1051598.6972,15707.92,5969.0,-3845.55,19012.02,29251.2,18069.89,15878.97,29675.06
1051598.7012,15707.69,5965.14,-3838.54,19030.53,28694.16,17555.29,14155.53,29276.8
1051598.7052,15708.5,5834.63,-3877.74,19078.5,28346.3,17243.2,12368.68,29001.48
1051598.7092,15713.65,5844.02,-3882.6,19074.25,28889.33,17737.77,14044.57,29402.78
1051598.7132,15743.31,5994.08,-3817.61,19059.61,29249.72,18072.27,15809.49,29690.56
1051598.7172,15767.19,6026.98,-3781.61,19098.71,28822.0,17672.64,14608.0,29408.36
1051598.7212,15737.92,5887.6,-3837.78,19114.64,28356.41,17248.78,12476.25,29076.63
1051598.7252,15748.12,5875.59,-3829.96,19130.76,28810.31,17641.69,13681.75,29362.73
1051598.7292,15778.88,6028.84,-3736.78,19142.96,29272.32,18047.48,15720.42,29708.77
1051598.7332,15815.69,6106.19,-3689.91,19168.9,28961.95,17743.4,15066.72,29458.72
1051598.7372,15849.16,6023.84,-3711.89,19220.55,28419.78,17232.09,12728.03,29033.19
1051598.7412,15848.07,5955.89,-3735.02,19237.57,28717.71,17504.31,13289.07,29224.45
1051598.7452,15877.82,6105.81,-3630.92,19272.14,29232.12,17963.36,15455.3,29598.72
1051598.7492,15926.94,6233.93,-3545.28,19323.97,29096.89,17858.08,15420.44,29582.89
1051598.7532,15933.23,6147.53,-3588.06,19342.19,28478.15,17322.64,12956.1,29194.79
1051598.7572,15898.99,6024.17,-3661.2,19322.78,28630.78,17434.69,12912.32,29215.82
1051598.7612,15894.7,6114.67,-3626.16,19314.34,29186.68,17921.21,15118.41,29613.83
1051598.7652,15922.93,6239.84,-3555.58,19314.91,29185.54,17888.83,15668.58,29568.39
1051598.7692,15911.34,6156.64,-3585.29,19332.36,28545.57,17302.8,13316.63,29110.24
1051598.7731,15875.91,6018.88,-3658.82,19338.99,28541.04,17305.52,12631.99,29113.06
1051598.7771,15880.59,6090.16,-3634.31,19309.81,29130.56,17821.36,14817.53,29485.52
1051598.7811,15887.74,6210.47,-3571.94,19288.26,29267.6,17955.97,15870.29,29653.12
1051598.7851,15885.4,6164.27,-3586.25,19303.04,28641.04,17409.76,13747.26,29277.23
1051598.7891,15847.64,5996.37,-3667.93,19324.35,28442.77,17225.65,12431.1,29108.24
1051598.7931,15828.23,6016.88,-3679.09,19279.82,29019.17,17719.08,14403.87,29488.19
1051598.7971,15835.95,6145.81,-3637.51,19254.73,29291.06,17941.57,15914.59,29662.56
1051598.8011,15822.6,6123.11,-3656.58,19268.04,28745.23,17428.78,14217.19,29249.15
1051598.8051,15764.24,5929.85,-3767.49,19229.37,28409.63,17145.3,12435.53,29046.4
1051598.8091,15751.98,5916.64,-3785.99,19196.75,28915.46,17615.61,14017.25,29408.27
1051598.8131,15782.79,6075.76,-3693.29,19204.9,29280.48,17937.14,15826.66,29664.38
1051598.8171,15786.75,6100.66,-3683.85,19206.1,28846.51,17530.92,14643.81,29371.03
1051598.8211,15767.1,5958.03,-3760.43,19201.71,28371.19,17105.44,12477.97,29034.52
1051598.8251,15734.2,5880.64,-3818.46,19164.66,28789.81,17475.65,13613.99,29305.18
1051598.8291,15736.3,6005.34,-3768.97,19138.67,29258.45,17892.27,15693.81,29666.81
1051598.8331,15740.59,6063.51,-3733.11,19147.06,28963.28,17632.87,15072.63,29523.9
1051598.8371,15725.42,5942.68,-3783.42,19161.56,28388.46,17120.17,12664.46,29109.48
1051598.8411,15700.2,5849.7,-3844.45,19138.43,28713.61,17416.05,13253.26,29338.89
1051598.8451,15705.16,5946.35,-3801.87,19101.34,29239.8,17880.39,15476.75,29718.26
1051598.8491,15722.18,6034.04,-3764.92,19102.53,29060.32,17720.18,15402.13,29586.94
1051598.8531,15709.59,5945.02,-3804.45,19135.95,28425.36,17117.88,12935.88,29047.83
1051598.8571,15663.43,5806.83,-3879.02,19121.22,28551.15,17232.23,12778.81,29128.94
1051598.8611,15679.7,5916.5,-3830.96,19080.88,29134.61,17756.85,15059.04,29588.23
1051598.8651,15711.79,6045.44,-3764.73,19084.6,29139.62,17758.09,15615.27,29631.0
1051598.8691,15710.4,5974.34,-3800.11,19102.05,28495.84,17179.63,13262.94,29168.99
1051598.8731,15676.4,5822.28,-3884.13,19088.75,28448.01,17108.59,12469.67,29050.78
1051598.8771,15659.91,5876.83,-3859.09,19062.47,29053.02,17647.75,14686.63,29481.18
1051598.8811,15680.08,6005.34,-3783.08,19078.02,29197.27,17774.97,15771.92,29605.54
1051598.8851,15682.65,5971.34,-3793.1,19096.28,28568.37,17202.47,13643.31,29173.57
1051598.8891,15661.29,5825.62,-3880.22,19095.14,28345.06,17005.73,12237.98,28996.61
1051598.8931,15668.97,5856.71,-3877.31,19077.02,28941.54,17553.38,14251.0,29433.02
1051598.8971,15681.32,5998.47,-3803.97,19055.65,29248.05,17839.86,15852.88,29712.35
1051598.901,15667.87,5973.86,-3837.3,19035.29,28709.51,17342.52,14224.72,29342.37
1051598.905,15639.35,5818.99,-3913.12,19040.54,28305.49,16991.52,12264.11,29045.78
1051598.909,15615.04,5793.76,-3925.56,19032.53,28845.84,17484.62,13888.22,29438.64
1051598.913,15643.74,5930.23,-3850.56,19028.71,29255.58,17860.46,15833.19,29779.39
1051598.917,15656.47,5976.01,-3832.77,19039.49,28842.26,17464.02,14728.69,29491.38
1051598.921,15634.35,5829.0,-3905.15,19040.59,28298.29,16949.61,12390.95,28988.41
1051598.925,15619.23,5770.4,-3935.81,19022.18,28723.34,17335.7,13477.76,29263.07
1051598.929,15645.17,5916.07,-3859.09,19038.73,29230.5,17787.89,15679.79,29655.75
1051598.933,15682.51,5993.8,-3824.0,19052.17,28960.04,17560.48,15151.84,29542.93
1051598.937,15655.09,5860.28,-3889.42,19046.69,28329.9,16969.59,12607.62,28998.33
1051598.941,15581.9,5732.01,-3973.29,18990.33,28600.65,17204.57,13066.44,29145.77
1051598.945,15602.73,5863.19,-3902.58,19002.11,29166.56,17718.75,15378.52,29601.01
1051598.949,15640.45,5962.61,-3848.98,19023.61,29055.88,17607.02,15488.34,29549.03
1051598.953,15631.96,5854.61,-3895.09,19031.91,28404.72,17007.78,12971.93,29062.32
1051598.957,15600.16,5724.81,-3968.24,19014.07,28511.34,17128.14,12728.03,29151.11
1051598.961,15610.74,5831.48,-3918.7,19007.26,29110.67,17676.31,15046.74,29617.12
1051598.965,15654.76,5968.81,-3858.85,19017.65,29155.93,17701.72,15737.01,29647.97
1051598.969,15649.27,5896.28,-3894.52,19018.13,28502.99,17083.36,13375.09,29139.57
1051598.973,15609.31,5737.78,-3958.42,19029.52,28444.63,17027.67,12496.14,29059.7
1051598.977,15604.74,5795.53,-3922.08,19029.71,29065.52,17593.29,14720.11,29508.02
1051598.981,15627.77,5946.06,-3849.13,19036.96,29267.93,17781.16,15944.05,29707.34
1051598.985,15642.22,5909.49,-3875.45,19018.7,28610.76,17206.67,13765.67,29300.84
1051598.989,15599.87,5740.79,-3965.52,19005.92,28360.89,16974.64,12272.6,29064.61
1051598.993,15589.91,5763.91,-3951.69,19010.93,28969.72,17507.51,14272.64,29480.99
1051598.997,15617.52,5907.15,-3887.75,19004.63,29292.3,17791.32,15924.88,29755.07
1051599.001,15630.06,5917.6,-3872.73,19032.81,28748.66,17322.54,14235.69,29437.59
1051599.005,15604.78,5757.24,-3958.32,19026.09,28354.79,16917.85,12306.79,29000.91
1051599.009,15583.76,5725.67,-3992.22,18984.51,28825.95,17321.54,13771.63,29214.19
1051599.013,15617.56,5870.15,-3917.55,19000.58,29254.25,17735.24,15722.71,29630.28
1051599.017,15622.47,5900.57,-3901.58,19005.21,28838.07,17344.67,14644.15,29336.79
1051599.021,15576.08,5747.03,-3985.55,18989.14,28317.5,16887.29,12333.82,28974.3
1051599.025,15544.32,5682.37,-4031.04,18960.76,28732.54,17258.41,13375.0,29238.28
1051599.0289,15577.56,5818.61,-3952.46,18965.29,29238.99,17714.45,15607.64,29620.6
1051599.0329,15607.64,5894.8,-3891.33,19002.25,28964.52,17469.98,15123.51,29474.07
1051599.0369,15608.46,5788.76,-3939.3,19013.07,28363.23,16924.19,12636.09,29034.38
1051599.0409,15596.2,5707.84,-3991.8,19004.82,28625.73,17170.81,13025.62,29208.38
1051599.0449,15601.45,5836.34,-3934.77,19005.83,29183.68,17675.83,15354.44,29621.41
1051599.0489,15629.29,5938.2,-3876.31,19006.87,29085.59,17578.46,15503.46,29591.9
1051599.0529,15616.99,5835.68,-3918.7,19018.03,28432.18,16966.3,13001.97,29082.59
1051599.0569,15588.0,5716.23,-3977.63,19010.93,28533.03,17062.9,12714.53,29147.39
1051599.0609,15592.53,5801.15,-3930.76,18996.86,29146.67,17617.13,15069.15,29596.9
1051599.0649,15623.62,5928.8,-3866.39,19009.64,29198.13,17671.63,15788.32,29706.29
1051599.0689,15616.94,5857.47,-3903.96,19021.7,28543.62,17078.02,13425.16,29217.15
1051599.0729,15582.52,5704.59,-3992.65,19001.44,28449.4,16993.19,12449.31,29111.34
1051599.0769,15568.26,5758.67,-3982.4,18965.06,29088.55,17554.91,14753.77,29561.86
1051599.0809,15603.02,5911.68,-3882.79,18994.1,29293.59,17785.41,15992.88,29868.18
1051599.0849,15611.65,5883.93,-3887.61,19010.21,28661.64,17180.92,13914.3,29322.06
1051599.0889,15560.91,5710.84,-3993.42,18982.65,28395.08,16860.68,12388.28,28943.45
1051599.0929,15553.76,5727.72,-3996.71,18959.62,28965.72,17388.78,14325.67,29338.41
1051599.0969,15597.44,5896.14,-3903.68,18979.84,29290.49,17707.06,15990.78,29662.76
1051599.1009,15623.86,5919.41,-3880.41,19009.88,28761.2,17226.51,14384.46,29315.24
1051599.1049,15590.62,5758.67,-3962.18,19000.25,28331.38,16844.51,12320.09,28981.83
1051599.1089,15570.5,5727.67,-3986.65,18983.89,28847.98,17309.29,13858.27,29313.85
1051599.1129,15603.35,5877.4,-3909.49,18990.71,29284.1,17700.77,15896.61,29642.39
1051599.1169,15617.66,5919.41,-3888.32,18989.8,28883.17,17329.31,14861.25,29382.14
1051599.1209,15591.05,5773.45,-3960.13,18991.66,28352.22,16857.53,12503.01,29022.89
1051599.1249,15566.97,5701.21,-4010.92,18956.9,28760.72,17226.32,13491.2,29287.25
1051599.1289,15573.5,5824.28,-3944.49,18946.7,29261.83,17683.7,15708.07,29669.53
1051599.1329,15588.67,5906.73,-3909.54,18984.03,29008.44,17459.3,15278.44,29548.12
1051599.1369,15581.09,5799.58,-3957.7,18984.61,28394.32,16894.15,12752.34,29081.25
1051599.1409,15557.82,5701.21,-3992.99,18984.03,28640.56,17117.31,13061.81,29231.46
1051599.1449,15583.8,5824.47,-3930.24,18989.14,29217.06,17642.17,15428.26,29668.48
1051599.1489,15614.8,5928.23,-3870.82,18995.67,29123.45,17560.44,15641.36,29645.59
1051599.1529,15613.41,5845.98,-3903.91,19006.4,28466.7,16976.79,13102.01,29208.14
1051599.1568,15581.8,5707.46,-3984.31,18995.14,28548.1,17076.21,12745.57,29289.68
1051599.1608,15575.32,5784.18,-3953.41,18971.87,29162.79,17566.16,15151.22,29558.47
1051599.1648,15596.49,5913.4,-3888.75,18978.65,29209.09,17565.16,15912.44,29508.31
1051599.1688,15594.87,5853.37,-3923.08,18991.71,28526.45,16989.52,13468.84,29135.14
1051599.1728,15549.52,5686.09,-4012.2,18966.44,28425.84,16899.87,12451.51,29035.14
1051599.1768,15542.99,5740.21,-3992.46,18960.0,29051.93,17464.31,14694.74,29491.76
1051599.1808,15574.65,5882.12,-3919.79,18967.44,29263.17,17640.31,15985.44,29638.58
1051599.1848,15586.19,5847.26,-3936.43,18981.13,28681.33,17100.53,14000.94,29221.54
1051599.1888,15537.41,5689.48,-4015.54,18976.64,28415.21,16872.6,12374.83,29051.59
1051599.1928,15539.89,5717.99,-4011.73,18936.49,28994.04,17387.54,14316.32,29449.51
1051599.1968,15586.43,5879.45,-3911.73,18951.94,29300.79,17669.58,16006.33,29682.93
1051599.2008,15595.96,5890.66,-3891.9,18989.99,28775.12,17185.64,14404.87,29305.18
1051599.2048,15577.6,5743.6,-3965.09,19006.78,28352.36,16817.33,12292.05,28996.61
1051599.2088,15562.3,5710.32,-3994.75,18981.27,28867.63,17278.34,13809.63,29348.23
1051599.2128,15589.62,5862.67,-3930.81,18964.39,29322.91,17669.35,15931.18,29699.52
1051599.2168,15613.61,5915.88,-3903.2,18974.74,28931.91,17315.91,14929.25,29470.83
1051599.2208,15589.29,5775.5,-3972.86,18985.89,28374.06,16811.66,12471.44,29031.61
1051599.2248,15560.44,5694.91,-4014.78,18960.34,28776.51,17180.06,13416.58,29312.95
1051599.2288,15569.74,5827.71,-3937.15,18960.53,29274.99,17639.64,15680.22,29663.52
1051599.2328,15594.34,5913.12,-3893.09,18985.89,29040.77,17437.75,15326.69,29560.09
1051599.2368,15578.94,5784.94,-3968.81,18967.68,28406.15,16821.39,12727.45,28996.8
1051599.2408,15547.56,5671.93,-4033.18,18950.7,28642.94,17024.23,13005.16,29114.63
1051599.2448,15565.4,5791.52,-3970.0,18948.27,29226.07,17571.17,15419.2,29595.76
1051599.2488,15587.86,5895.14,-3920.79,18956.19,29151.4,17536.12,15692.43,29668.81
1051599.2528,15565.3,5788.09,-3977.01,18947.65,28477.96,16923.43,13088.18,29158.07
1051599.2568,15532.64,5650.23,-4034.04,18950.42,28538.52,16945.27,12669.71,29075.91
1051599.2608,15554.24,5753.52,-3973.01,18950.13,29147.96,17495.92,15060.09,29519.13
1051599.2648,15569.4,5876.97,-3917.74,18946.22,29222.3,17554.67,15900.18,29619.51
1051599.2688,15580.7,5829.24,-3935.29,18963.48,28554.25,16977.6,13457.3,29213.58
1051599.2728,15567.83,5693.25,-3993.42,18992.81,28437.19,16900.49,12335.59,29155.69
1051599.2768,15564.11,5743.74,-3974.96,18983.18,29041.68,17402.03,14589.22,29446.22
1051599.2808,15592.0,5885.65,-3912.54,18959.52,29261.74,17611.74,15943.0,29665.76
1051599.2847,15586.04,5848.22,-3936.58,18949.27,28665.69,17057.99,13932.13,29232.79
1051599.2887,15540.51,5691.86,-4038.29,18936.78,28374.82,16787.05,12214.66,29009.97
1051599.2927,15542.41,5710.98,-4028.27,18928.1,28952.17,17309.14,14164.21,29383.0
1051599.2967,15567.45,5854.75,-3939.06,18925.86,29295.11,17613.6,15971.9,29649.64
1051599.3007,15579.89,5868.24,-3908.49,18960.29,28798.44,17160.13,14441.68,29326.49
1051599.3047,15548.42,5713.27,-3988.55,18959.33,28341.34,16745.38,12214.61,28971.63
1051599.3087,15542.65,5684.71,-4001.86,18961.19,28841.17,17192.27,13688.52,29297.74
1051599.3127,15559.48,5828.05,-3929.57,18957.38,29301.84,17598.11,15860.75,29646.69
1051599.3167,15592.58,5889.94,-3904.15,18968.06,28926.47,17252.73,14913.23,29415.42
1051599.3207,15574.98,5753.04,-3969.91,18980.74,28375.58,16764.36,12403.78,29031.66
1051599.3247,15539.6,5668.12,-4023.5,18957.62,28752.43,17092.75,13283.54,29248.24
1051599.3287,15551.09,5797.34,-3963.52,18934.11,29297.07,17576.22,15697.15,29651.45
1051599.3327,15573.88,5874.11,-3926.52,18932.77,29075.53,17386.2,15394.5,29570.77
1051599.3367,15560.1,5761.91,-3978.06,18939.78,28432.8,16817.91,12704.85,29144.48
1051599.3407,15543.8,5663.06,-4028.85,18945.79,28659.49,17016.79,12907.89,29248.1
1051599.3447,15572.5,5793.67,-3949.83,18960.48,29244.62,17530.92,15402.46,29619.74
1051599.3487,15593.29,5908.39,-3898.33,18967.2,29148.82,17434.12,15688.56,29568.63
1051599.3527,15579.65,5817.75,-3945.92,18971.4,28479.34,16836.03,13034.2,29120.93
1051599.3567,15549.47,5674.79,-4025.79,18956.71,28528.74,16876.89,12531.95,29078.63
1051599.3607,15533.4,5735.06,-4003.72,18928.58,29153.54,17449.05,15026.24,29562.05
1051599.3647,15560.58,5865.19,-3929.33,18931.82,29239.04,17523.96,15952.26,29657.56
1051599.3687,15562.06,5820.89,-3935.81,18958.52,28587.06,16935.3,13512.8,29182.87
1051599.3727,15540.55,5676.99,-4009.1,18949.03,28446.25,16827.78,12261.58,29081.68
1051599.3767,15559.96,5735.35,-3977.35,18960.53,29090.31,17385.06,14629.79,29490.47
1051599.3807,15581.8,5874.78,-3908.54,18958.43,29305.03,17582.08,16057.73,29677.78
1051599.3847,15570.02,5845.74,-3929.42,18946.84,28700.5,17052.99,13985.35,29317.81
1051599.3887,15541.75,5692.05,-3996.23,18950.13,28391.27,16761.35,12144.14,29007.01
1051599.3927,15535.5,5691.96,-4001.95,18939.45,28968.58,17260.27,14129.31,29363.16
1051599.3967,15565.68,5844.07,-3932.52,18940.12,29319.48,17586.85,16006.61,29690.27
1051599.4007,15580.37,5863.33,-3918.27,18950.85,28820.99,17132.57,14491.85,29343.08
1051599.4047,15550.28,5711.99,-3987.03,18966.87,28356.03,16722.63,12156.3,28997.52
1051599.4087,15542.41,5690.1,-3998.71,18963.67,28867.58,17200.23,13647.46,29379.8
1051599.4126,15571.83,5844.64,-3930.76,18951.94,29324.63,17605.5,15898.42,29712.78
1051599.4166,15591.58,5893.61,-3905.87,18959.33,28936.15,17252.02,14952.33,29437.45
1051599.4206,15543.08,5730.34,-4001.47,18932.39,28370.91,16729.5,12355.52,28992.27
1051599.4246,15519.05,5649.76,-4054.36,18906.69,28754.76,17087.41,13217.5,29297.74
1051599.4286,15547.23,5796.34,-3967.0,18922.52,29287.53,17578.32,15658.62,29716.59
1051599.4326,15570.59,5878.64,-3917.17,18938.83,29055.88,17355.92,15396.74,29519.56
1051599.4366,15549.33,5772.02,-3967.43,18942.74,28412.77,16783.14,12638.24,29076.91
1051599.4406,15519.67,5652.71,-4035.81,18919.28,28616.19,16987.09,12731.55,29260.5
1051599.4446,15538.84,5760.1,-3983.83,18897.3,29179.86,17466.5,15234.04,29579.02
1051599.4486,15567.69,5884.65,-3917.17,18915.7,29135.04,17413.0,15679.93,29586.13
1051599.4526,15553.81,5798.29,-3957.7,18947.17,28461.17,16788.68,12976.08,29074.96
1051599.4566,15532.45,5663.78,-4022.79,18952.42,28488.11,16799.31,12355.52,29027.85
1051599.4606,15550.76,5756.28,-3963.66,18953.09,29115.78,17376.81,14858.25,29522.28
1051599.4646,15575.03,5877.88,-3897.29,18953.18,29228.6,17471.79,15895.8,29619.51
1051599.4686,15560.39,5819.23,-3940.44,18939.88,28586.49,16883.42,13474.51,29174.9
1051599.4726,15521.1,5666.45,-4031.13,18931.06,28440.62,16759.73,12170.08,29057.41
1051599.4765,15525.53,5723.67,-3994.42,18933.63,29061.75,17319.01,14489.46,29494.24
1051599.4805,15593.86,5897.95,-3890.51,18967.34,29291.2,17516.52,16014.34,29663.95
1051599.4845,15614.89,5889.94,-3891.75,18983.8,28715.23,17005.54,13996.51,29317.14
1051599.4885,15568.97,5721.24,-3970.86,18982.89,28398.56,16718.06,12091.64,29060.94
1051599.4925,15551.95,5714.13,-3974.68,18978.79,28962.66,17215.78,14052.39,29405.07
1051599.4965,15558.91,5839.25,-3922.56,18952.42,29315.81,17538.6,16016.53,29703.91
1051599.5005,15559.48,5851.03,-3919.41,18946.55,28844.5,17097.71,14556.55,29371.41
1051599.5045,15520.81,5693.96,-4019.12,18924.86,28370.24,16675.43,12129.02,29039.24
1051599.5085,15499.12,5641.46,-4070.66,18885.76,28868.73,17095.85,13585.86,29309.66
1051599.5125,15536.98,5797.1,-3977.97,18895.44,29323.96,17512.9,15880.06,29664.19
1051599.5165,15552.9,5852.41,-3931.24,18927.48,28967.1,17206.58,15001.11,29487.04
1051599.5205,15527.73,5724.43,-3999.62,18931.92,28416.49,16703.51,12340.93,29084.4
1051599.5245,15504.08,5648.18,-4035.38,18933.97,28749.52,17021.04,13057.33,29286.96
1051599.5285,15536.93,5786.47,-3953.7,18935.16,29280.0,17499.88,15596.92,29700.71
1051599.5325,15582.13,5892.9,-3902.67,18944.93,29099.42,17332.46,15453.86,29641.68
1051599.5365,15560.15,5774.02,-3957.7,18952.04,28428.46,16737.22,12578.44,29137.33
1051599.5405,15526.82,5657.44,-4015.49,18953.04,28620.29,16904.5,12609.1,29200.7
1051599.5445,15544.8,5761.96,-3964.95,18929.53,29225.26,17418.2,15281.39,29597.0
1051599.5485,15561.49,5862.71,-3915.83,18923.38,29150.58,17337.71,15725.76,29519.56
1051599.5525,15538.27,5783.7,-3962.76,18928.53,28469.71,16727.64,12974.69,29063.85
1051599.5565,15510.23,5652.48,-4032.8,18932.82,28482.63,16741.47,12238.93,29069.62
1051599.5605,15534.78,5742.98,-3971.72,18937.83,29115.01,17315.44,14803.55,29541.02
1051599.5645,15559.34,5875.64,-3905.63,18947.75,29243.04,17432.17,15943.48,29663.04
1051599.5685,15540.79,5813.6,-3954.51,18931.11,28598.5,16852.05,13492.3,29234.84
1051599.5725,15485.43,5638.55,-4041.77,18910.98,28429.94,16689.21,12078.95,29091.7
1051599.5765,15487.39,5677.46,-4005.77,18917.75,29035.09,17235.38,14394.9,29506.64
1051599.5805,15554.48,5839.25,-3934.86,18911.65,29291.78,17433.79,16051.53,29658.7
1051599.5845,15575.79,5849.65,-3939.2,18919.04,28714.9,16910.32,14050.44,29273.56
1051599.5885,15552.14,5693.1,-4020.26,18919.57,28344.25,16605.95,11920.93,28998.66
1051599.5925,15517.62,5678.03,-4022.69,18922.52,28936.53,17148.21,13910.34,29461.2
1051599.5965,15543.61,5829.19,-3941.11,18933.82,29306.94,17485.43,15955.88,29785.26
1051599.6005,15567.07,5858.09,-3925.66,18936.83,28816.18,17021.71,14488.36,29395.54
1051599.6044,15544.23,5706.69,-4002.05,18930.53,28352.22,16583.25,12046.0,28989.7
1051599.6084,15516.66,5652.52,-4033.04,18920.38,28830.67,17007.16,13467.69,29268.17
1051599.6124,15541.89,5803.44,-3946.83,18931.53,29278.42,17408.28,15768.72,29597.1
1051599.6164,15551.19,5855.8,-3926.28,18931.34,28949.93,17121.6,14990.81,29465.3
1051599.6204,15527.2,5711.51,-4024.46,18893.63,28393.18,16620.3,12278.61,29100.99
1051599.6244,15499.74,5623.96,-4062.22,18886.52,28753.19,16963.44,13007.5,29380.37
1051599.6284,15519.33,5764.39,-3971.39,18898.82,29284.72,17425.68,15577.41,29731.61
1051599.6324,15562.44,5872.92,-3921.46,18911.27,29068.9,17188.84,15434.31,29487.57
1051599.6364,15543.8,5762.67,-3984.98,18910.12,28422.17,16615.15,12549.5,29064.13
1051599.6404,15517.86,5638.79,-4052.5,18900.87,28606.75,16773.51,12503.77,29164.27
1051599.6444,15527.92,5742.55,-3991.65,18914.03,29229.22,17338.47,15198.09,29655.13
1051599.6484,15552.14,5858.71,-3936.72,18922.47,29224.78,17324.12,15840.53,29696.13
1051599.6524,15537.12,5774.59,-3976.49,18926.58,28526.17,16683.91,13020.28,29150.63
1051599.6564,15518.0,5645.56,-4028.99,18940.4,28505.76,16666.51,12163.78,29101.33
1051599.6604,15532.54,5724.57,-3993.23,18929.01,29142.57,17232.47,14777.52,29553.94
1051599.6644,15557.91,5854.66,-3930.28,18917.52,29251.77,17344.95,15935.71,29682.69
1051599.6684,15550.19,5804.97,-3948.74,18922.24,28604.75,16748.76,13461.69,29204.56
1051599.6724,15524.96,5658.34,-4024.98,18918.09,28441.19,16605.47,11995.36,29073.38
1051599.6764,15525.72,5695.39,-4011.15,18909.27,29053.74,17172.15,14330.29,29535.92
1051599.6804,15538.27,5834.15,-3950.64,18898.92,29298.88,17386.53,16027.26,29704.48
1051599.6844,15540.12,5814.12,-3963.52,18907.55,28698.54,16851.81,13963.65,29322.77
1051599.6884,15524.48,5669.17,-4030.9,18921.0,28363.23,16566.23,11863.9,29105.33
1051599.6924,15495.64,5651.09,-4047.59,18891.81,28922.94,17064.38,13807.49,29483.8
1051599.6964,15511.56,5795.38,-3978.11,18887.43,29280.81,17358.93,15905.14,29675.77
1051599.7004,15526.01,5818.37,-3956.6,18898.92,28834.87,16946.46,14523.17,29392.44
1051599.7044,15505.27,5672.41,-4025.75,18905.83,28346.35,16498.95,11994.27,28993.51
1051599.7084,15489.68,5620.91,-4066.32,18882.28,28801.97,16910.98,13330.75,29297.55
1051599.7124,15509.99,5767.82,-3987.36,18883.52,29269.6,17343.38,15715.79,29696.66
1051599.7164,15537.65,5840.78,-3938.29,18916.99,28974.68,17085.27,15005.64,29551.32
1051599.7204,15520.24,5706.88,-4012.87,18907.84,28417.07,16583.73,12253.67,29181.72
1051599.7244,15481.76,5598.97,-4084.25,18883.18,28711.75,16807.99,12844.61,29246.14
1051599.7284,15529.3,5761.91,-3983.31,18912.84,29267.51,17294.55,15439.42,29605.92
1051599.7323,15534.69,5834.06,-3946.59,18915.7,29084.54,17126.85,15403.8,29522.8
1051599.7363,15526.34,5730.34,-3991.22,18926.91,28456.21,16550.88,12573.1,29072.91
1051599.7403,15503.79,5620.58,-4047.73,18917.09,28613.38,16701.37,12420.75,29173.57
1051599.7443,15531.73,5744.08,-3969.29,18938.5,29230.93,17297.65,15102.87,29733.38
1051599.7483,15575.98,5881.5,-3873.68,18988.04,29204.99,17247.73,15723.66,29650.74
1051599.7523,15598.25,5826.86,-3895.33,19007.73,28537.18,16601.52,12986.71,29073.77
1051599.7563,15596.3,5715.37,-3934.91,19042.59,28510.34,16581.63,12075.28,29046.78
1051599.7603,15621.81,5814.74,-3858.14,19071.39,29135.04,17155.22,14645.24,29525.09
1051599.7643,15673.83,5980.64,-3764.68,19092.99,29283.1,17260.65,15932.28,29614.83
1051599.7683,15719.22,5985.17,-3740.26,19134.91,28645.9,16693.78,13496.11,29203.61
1051599.7723,15711.12,5853.56,-3795.05,19158.56,28445.53,16533.04,11885.6,29080.35
1051599.7763,15697.15,5887.32,-3775.17,19163.37,29087.36,17126.04,14250.04,29583.89
1051599.7803,15730.67,6038.0,-3696.54,19173.05,29345.23,17338.52,16007.95,29727.89
1051599.7843,15748.26,6040.19,-3697.87,19172.34,28789.19,16819.53,14053.82,29332.45
1051599.7883,15718.65,5876.97,-3779.46,19176.44,28425.17,16492.18,11864.81,29041.72
1051599.7923,15701.11,5866.81,-3785.94,19186.93,28953.98,16980.46,13731.05,29418.76
1051599.7963,15745.36,6039.19,-3678.75,19190.84,29348.09,17350.15,15908.43,29797.7
1051599.8003,15764.72,6074.86,-3652.29,19202.85,28898.53,16942.5,14553.83,29487.04
1051599.8043,15735.91,5919.89,-3738.74,19213.54,28394.99,16457.8,11951.88,28999.48
1051599.8083,15698.29,5840.73,-3795.67,19179.11,28839.64,16850.9,13266.85,29268.89
1051599.8123,15713.65,5979.54,-3715.61,19178.35,29315.38,17282.68,15698.63,29646.07
1051599.8163,15713.26,6037.47,-3694.44,19164.61,29024.8,17046.36,15062.48,29551.94
1051599.8203,15692.19,5909.83,-3774.88,19152.79,28409.29,16500.19,12178.09,29113.92
1051599.8243,15656.14,5799.58,-3848.55,19110.63,28724.82,16770.03,12771.08,29285.48
1051599.8283,15654.95,5904.34,-3815.46,19064.67,29270.13,17262.7,15391.88,29706.91
1051599.8323,15677.12,6008.05,-3758.96,19092.61,29083.54,17091.9,15367.13,29561.48
1051599.8363,15657.38,5903.29,-3804.73,19106.72,28436.66,16493.32,12482.12,29042.68
1051599.8403,15619.66,5767.82,-3883.12,19086.22,28589.4,16617.97,12271.93,29091.36
1051599.8443,15627.1,5851.84,-3851.7,19048.6,29206.61,17178.44,14991.0,29594.66
1051599.8483,15646.84,5969.19,-3796.86,19049.36,29212.86,17170.91,15754.89,29621.22
1051599.8523,15635.06,5891.37,-3840.4,19049.46,28544.86,16571.52,12992.05,29165.56
1051599.8563,15604.21,5741.45,-3919.46,19041.68,28501.94,16541.67,12015.53,29109.15
1051599.8602,15608.03,5812.6,-3882.03,19031.96,29128.55,17103.86,14600.8,29558.42
1051599.8642,15623.76,5934.29,-3841.21,19002.96,29291.44,17251.35,15972.81,29719.69
1051599.8682,15598.16,5870.63,-3883.03,18988.23,28635.93,16662.6,13497.74,29275.71
1051599.8722,15548.71,5695.77,-3982.88,18959.72,28414.92,16452.7,11833.62,29064.47
1051599.8762,15547.56,5724.81,-3971.39,18951.94,29029.9,17008.21,14142.56,29504.02
1051599.8802,15573.93,5869.91,-3895.47,18948.03,29330.88,17272.62,16015.34,29740.15
1051599.8842,15583.47,5871.01,-3889.37,18960.48,28773.45,16778.09,14075.14,29375.27
1051599.8882,15544.32,5708.12,-3977.59,18951.75,28393.61,16417.84,11852.22,29031.04
1051599.8922,15527.77,5684.09,-3993.03,18929.91,28933.48,16901.3,13678.03,29384.57
1051599.8962,15550.52,5826.71,-3925.8,18918.42,29317.57,17248.87,15870.95,29697.99
1051599.9002,15560.87,5873.63,-3903.77,18935.63,28886.37,16850.43,14564.95,29425.86
1051599.9042,15532.07,5726.2,-3976.77,18938.78,28397.71,16415.26,11942.39,29088.69
1051599.9082,15512.33,5665.4,-4017.07,18927.96,28823.28,16795.97,13151.22,29352.86
1051599.9122,15543.89,5816.27,-3942.78,18935.83,29306.22,17241.72,15644.7,29743.77
1051599.9162,15553.62,5883.27,-3917.5,18918.42,29003.81,16951.23,15033.29,29484.42
1051599.9202,15537.17,5750.47,-3984.07,18907.07,28404.1,16409.21,12177.18,29035.86
1051599.9244,15499.78,5639.46,-4035.04,18910.22,28707.32,16692.45,12704.99,29281.05
1051599.9284,15517.86,5765.53,-3966.28,18909.89,29263.12,17170.86,15389.64,29648.5
1051599.9324,15554.43,5873.97,-3914.88,18920.14,29116.54,17021.37,15489.25,29531.72
1051599.9364,15545.75,5781.32,-3955.65,18932.87,28456.5,16448.21,12562.66,29100.04
1051599.9404,15500.74,5639.32,-4040.38,18905.31,28588.63,16589.93,12274.7,29235.7
1051599.9444,15484.67,5710.79,-4021.55,18864.68,29184.06,17089.13,15031.39,29579.74
1051599.9484,15506.7,5823.57,-3965.9,18858.96,29198.46,17102.86,15831.42,29632.19
1051599.9524,15511.8,5771.21,-3983.21,18876.46,28549.39,16509.53,13061.67,29175.0
1051599.9564,15482.62,5622.29,-4053.31,18888.81,28496.13,16455.22,11983.54,29088.07
1051599.9604,15479.76,5680.7,-4035.43,18866.06,29119.64,17015.65,14592.46,29540.26
1051599.9644,15514.71,5826.9,-3983.36,18848.8,29299.88,17173.48,16020.11,29719.64
1051599.9684,15510.27,5787.33,-3983.36,18880.13,28680.33,16625.93,13604.83,29334.31
1051599.9724,15479.52,5630.06,-4047.59,18891.86,28451.54,16408.06,11846.45,29091.74
1051599.9764,15481.09,5653.81,-4038.14,18880.56,29043.11,16946.84,14119.39,29505.54
1051599.9804,15503.93,5815.08,-3956.41,18877.56,29333.59,17218.64,15999.84,29777.1
1051599.9844,15516.47,5816.36,-3968.48,18875.17,28798.06,16712.33,14131.79,29409.46
1051599.9881,15493.68,5664.59,-4044.58,18879.75,28398.09,16325.33,11794.28,29028.66
1051599.9921,15485.05,5648.52,-4051.73,18869.26,28940.49,16802.79,13638.59,29367.02
1051599.9961,15506.84,5795.91,-3984.5,18863.2,29339.94,17157.94,15921.02,29682.59
1051600.0001,15515.04,5829.14,-3965.47,18872.41,28925.8,16778.95,14672.09,29436.88
1051600.0041,15490.3,5679.47,-4033.09,18873.88,28422.31,16349.46,11939.91,29143.29
1051600.0081,15472.7,5619.67,-4068.28,18858.77,28841.64,16725.59,13105.11,29376.41
1051600.0121,15487.24,5749.7,-4009.25,18838.03,29331.4,17136.1,15682.03,29704.15
1051600.0161,15522.53,5835.68,-3962.28,18860.87,29073.53,16897.97,15180.88,29551.8
1051600.0201,15495.83,5710.89,-4020.41,18878.08,28464.56,16367.82,12213.33,29138.33
1051600.0241,15465.31,5602.5,-4086.88,18844.32,28721.81,16574.67,12632.56,29214.0
1051600.0281,15485.43,5725.19,-4029.56,18833.88,29283.57,17056.04,15405.13,29571.2
1051600.0321,15498.16,5825.19,-3971.96,18849.23,29152.54,16946.79,15585.81,29524.52
1051600.0361,15505.36,5732.97,-3993.18,18890.57,28505.85,16367.82,12604.43,29075.53
1051600.0401,15468.98,5594.4,-4070.62,18881.13,28622.34,16482.4,12254.38,29170.8
1051600.0441,15472.22,5696.3,-4029.23,18851.0,29231.17,17024.14,15087.22,29615.6
1051600.0481,15507.89,5830.91,-3954.41,18858.44,29274.47,17062.86,16025.55,29688.27
1051600.0521,15507.37,5761.91,-3982.5,18877.65,28600.65,16456.46,13151.79,29211.38
1051600.0561,15475.23,5605.36,-4071.95,18859.77,28528.93,16393.62,11966.75,29139.38
1051600.0601,15470.08,5674.98,-4041.82,18857.24,29167.46,16976.98,14675.81,29628.42
1051600.0641,15513.09,5823.76,-3949.74,18872.45,29357.63,17129.57,16262.91,29760.27
1051600.0681,15520.53,5799.72,-3959.51,18890.38,28732.88,16577.39,13761.57,29383.38
1051600.0721,15482.19,5640.08,-4041.2,18889.91,28488.4,16335.87,11861.61,29126.6
1051600.0761,15469.27,5652.62,-4040.43,18873.17,29077.96,16849.14,14203.55,29486.95
1051600.0801,15495.64,5795.43,-3982.4,18848.71,29396.54,17111.83,16297.77,29705.67
1051600.0841,15518.09,5809.78,-3966.28,18868.02,28831.39,16623.36,14291.57,29358.63
1051600.0881,15499.36,5658.67,-4033.52,18874.31,28428.46,16265.35,11757.14,29044.68
1051600.0921,15471.41,5623.15,-4070.85,18844.08,28988.79,16763.36,13685.66,29448.08
1051600.0961,15495.59,5770.11,-4005.77,18836.74,29402.02,17133.91,16164.97,29753.97
1051600.1001,15507.13,5816.03,-3975.87,18842.17,28965.95,16737.03,14875.41,29461.58
1051600.1041,15510.7,5694.68,-4020.55,18867.11,28453.26,16264.35,11990.6,29030.42
1051600.1081,15469.7,5610.9,-4074.14,18852.0,28865.67,16626.98,13152.17,29278.62
1051600.1121,15489.87,5745.6,-3983.69,18857.96,29338.65,17069.15,15853.69,29668.0
1051600.116,15534.31,5845.83,-3931.76,18879.85,29076.39,16846.66,15358.5,29557.47
1051600.12,15522.05,5738.02,-3985.36,18897.11,28473.95,16347.08,12231.78,29205.66
1051600.124,15479.95,5633.16,-4053.59,18871.79,28721.77,16543.96,12579.25,29236.99
1051600.128,15494.25,5746.56,-4009.44,18860.39,29288.1,17033.77,15513.09,29627.61
1051600.132,15511.94,5846.93,-3952.84,18870.12,29172.95,16935.78,15781.26,29591.8
1051600.136,15507.89,5747.46,-3997.42,18877.51,28515.96,16348.94,12672.33,29123.12
1051600.14,15487.48,5617.09,-4072.14,18865.49,28607.32,16437.96,12176.09,29179.48
1051600.144,15512.28,5723.95,-4002.14,18862.92,29223.02,16986.75,15106.3,29610.07
1051600.148,15536.26,5855.51,-3927.42,18883.28,29272.51,17035.06,16074.09,29703.0
1051600.152,15533.16,5790.52,-3961.04,18889.86,28628.73,16465.52,13191.27,29302.22
1051600.156,15517.14,5645.66,-4036.71,18886.62,28552.25,16389.47,11890.6,29224.45
1051600.16,15495.54,5682.04,-4034.57,18851.71,29156.97,16901.21,14639.43,29549.41
1051600.164,15517.33,5822.8,-3961.75,18852.81,29340.46,17084.31,16261.25,29770.57
1051600.168,15529.68,5798.77,-3962.85,18873.22,28717.33,16520.98,13720.18,29336.89
1051600.172,15492.82,5632.21,-4057.07,18855.24,28470.95,16268.02,11702.68,29071.81
1051600.176,15489.68,5656.43,-4061.79,18833.97,29059.56,16778.18,14084.87,29449.42
1051600.18,15509.27,5809.74,-3982.5,18843.27,29381.42,17066.48,16254.38,29713.49
1051600.184,15510.47,5813.07,-3979.06,18842.99,28846.08,16601.99,14313.6,29393.58
1051600.188,15486.62,5661.63,-4040.34,18862.2,28424.31,16225.67,11656.33,29080.78
1051600.192,15484.38,5636.55,-4042.1,18872.12,28941.21,16701.94,13477.23,29460.0
1051600.196,15513.61,5784.46,-3963.57,18869.64,29360.01,17079.93,16038.85,29784.3
1051600.2,15522.43,5827.24,-3955.79,18861.11,28954.75,16702.56,14836.55,29497.82
1051600.204,15484.24,5685.19,-4020.98,18872.74,28413.78,16207.65,11810.73,29048.35
1051600.208,15473.13,5617.76,-4055.45,18871.83,28819.56,16589.5,12926.68,29338.41
1051600.212,15496.97,5746.75,-4002.62,18842.94,29329.92,17028.86,15779.54,29689.08
1051600.216,15505.74,5834.63,-3958.03,18853.09,29072.05,16796.59,15366.37,29530.58
1051600.22,15513.23,5743.65,-3988.12,18888.62,28447.15,16245.32,12142.8,29093.7
1051600.224,15505.32,5647.95,-4027.99,18890.67,28704.07,16482.26,12430.43,29256.11
1051600.228,15520.15,5766.63,-3969.53,18887.33,29287.58,17026.43,15415.15,29760.94
1051600.232,15532.83,5859.33,-3936.39,18867.54,29191.12,16900.4,15806.34,29640.01
1051600.236,15518.71,5761.43,-3973.1,18878.99,28534.23,16316.37,12636.85,29193.45
1051600.24,15485.05,5621.43,-4051.88,18881.23,28604.89,16380.03,12040.04,29188.59
1051600.2439,15483.52,5706.17,-4020.36,18859.1,29222.49,16909.41,15010.5,29590.51
1051600.2479,15506.7,5829.14,-3950.41,18846.08,29281.05,16977.03,16099.93,29706.05
1051600.2519,15514.76,5775.93,-3966.48,18868.69,28615.24,16415.79,13124.09,29345.71
1051600.2559,15480.52,5625.01,-4035.76,18878.61,28493.07,16314.7,11655.33,29217.58
1051600.2599,15477.28,5671.41,-4014.92,18860.63,29112.44,16825.96,14413.6,29555.32
1051600.2639,15507.84,5825.71,-3950.31,18860.53,29324.58,17014.03,16150.57,29730.28
1051600.2679,15506.98,5796.48,-3974.3,18853.95,28714.28,16437.34,13669.21,29261.02
1051600.2719,15435.65,5619.67,-4059.03,18856.48,28443.67,16195.44,11538.51,29044.54
1051600.2759,15448.29,5617.0,-4059.84,18836.21,29026.61,16715.86,13876.25,29446.32
1051600.2799,15521.19,5813.79,-3965.47,18856.05,29373.84,17029.57,16157.58,29734.28
1051600.2839,15545.99,5849.08,-3930.28,18883.66,28841.64,16554.26,14242.51,29393.82
1051600.2879,15517.28,5690.48,-4007.82,18891.91,28424.65,16171.93,11570.26,29063.23
1051600.2919,15497.97,5652.86,-4023.74,18894.48,28949.65,16641.43,13363.94,29424.34
1051600.2959,15516.24,5793.86,-3953.74,18889.57,29380.37,17023.8,15984.11,29755.31
1051600.2999,15518.29,5838.54,-3933.72,18888.52,28983.55,16669.47,14835.17,29509.55
1051600.3039,15496.88,5704.21,-4008.58,18880.61,28455.4,16226.96,11787.08,29206.9
1051600.3079,15472.46,5617.33,-4063.23,18856.19,28834.06,16532.61,12818.53,29346.37
1051600.3119,15472.99,5744.6,-3998.47,18841.08,29345.71,16967.3,15707.07,29678.68
1051600.3159,15494.25,5823.9,-3960.47,18849.99,29086.97,16740.99,15332.7,29553.99
1051600.3199,15494.83,5715.42,-4012.2,18855.24,28472.9,16208.32,12114.1,29170.9
1051600.3239,15470.55,5598.12,-4074.05,18842.27,28720.48,16426.47,12331.53,29303.7
1051600.3279,15477.52,5701.26,-4021.36,18826.44,29290.87,16936.97,15310.34,29719.5
1051600.3319,15499.55,5815.84,-3961.9,18834.69,29176.1,16820.96,15692.62,29616.88
1051600.3359,15491.44,5733.59,-3987.88,18866.59,28509.52,16231.4,12529.52,29168.47
1051600.3399,15471.32,5608.37,-4056.74,18855.24,28574.85,16303.06,11858.04,29216.58
1051600.3439,15486.53,5706.12,-4012.35,18861.01,29179.2,16834.45,14802.12,29626.09
1051600.3479,15531.35,5854.75,-3919.7,18899.63,29263.64,16906.22,15947.87,29715.02
1051600.3519,15518.95,5791.62,-3956.7,18903.21,28614.43,16309.36,13085.37,29228.21
1051600.3559,15476.61,5614.33,-4064.89,18855.72,28476.58,16192.87,11556.87,29135.33
1051600.3599,15480.0,5671.64,-4036.52,18843.84,29109.1,16771.37,14333.06,29607.25
1051600.3639,15509.18,5824.38,-3946.35,18870.64,29311.85,16945.51,16056.83,29754.98
1051600.3679,15517.71,5806.92,-3948.26,18885.04,28702.79,16357.09,13633.63,29234.99
1051600.3718,15482.05,5641.08,-4047.11,18841.84,28400.23,16091.78,11401.7,29011.87
1051600.3758,15478.76,5647.71,-4053.83,18814.71,28990.27,16617.44,13716.08,29431.39
1051600.3798,15501.64,5802.3,-3986.45,18826.53,29346.28,16935.78,16048.77,29739.57
1051600.3838,15517.28,5826.28,-3962.18,18854.81,28835.97,16490.89,14246.51,29451.18
1051600.3878,15495.73,5668.88,-4012.25,18873.12,28415.06,16127.64,11520.43,29194.02
1051600.3918,15472.13,5624.25,-4038.91,18855.05,28907.06,16539.53,13213.21,29421.14
1051600.3958,15495.64,5770.59,-3967.62,18849.57,29362.06,16933.87,15906.53,29762.89
1051600.3998,15511.18,5834.15,-3942.49,18866.06,28970.86,16577.48,14819.81,29523.76
1051600.4038,15508.22,5709.7,-4011.68,18878.99,28421.26,16083.96,11716.37,29105.05
1051600.4078,15498.07,5635.88,-4058.22,18857.2,28811.46,16430.71,12673.28,29357.1
1051600.4118,15496.3,5757.38,-4000.09,18836.79,29319.77,16865.92,15564.4,29664.47
1051600.4158,15505.6,5829.14,-3959.94,18831.4,29096.8,16658.45,15318.25,29556.95
1051600.4198,15494.97,5710.08,-4000.14,18848.09,28454.21,16095.5,12046.96,29112.77
1051600.4238,15475.61,5609.51,-4057.12,18858.44,28678.09,16314.03,12141.13,29286.91
1051600.4278,15491.2,5729.91,-4009.01,18847.99,29270.8,16820.48,15178.11,29663.14
1051600.4318,15504.65,5840.68,-3948.64,18853.71,29210.86,16755.73,15710.88,29649.07
1051600.4358,15508.89,5764.29,-3973.96,18874.7,28535.27,16159.87,12531.57,29200.37
1051600.4398,15491.77,5632.59,-4048.44,18867.16,28584.87,16217.14,11771.73,29236.13
1051600.4438,15501.36,5713.61,-4008.1,18851.33,29211.0,16771.22,14742.76,29682.69
1051600.4478,15513.33,5838.16,-3943.97,18852.09,29290.82,16831.45,15973.76,29733.61
1051600.4518,15507.94,5770.68,-3986.45,18851.71,28644.04,16238.6,13125.23,29285.29
1051600.4558,15471.17,5618.86,-4070.95,18843.37,28505.42,16117.38,11541.22,29167.46
1051600.4598,15470.98,5668.02,-4050.59,18813.66,29119.11,16659.79,14245.08,29581.22
1051600.4638,15501.21,5806.54,-3962.56,18829.63,29333.17,16850.52,16032.32,29754.07
1051600.4678,15500.93,5785.99,-3957.22,18865.49,28744.51,16304.16,13683.56,29307.61
1051600.4718,15473.08,5623.39,-4053.4,18848.99,28464.65,16043.86,11488.11,29092.98
1051600.4758,15456.63,5622.91,-4072.91,18803.12,29003.48,16537.48,13677.74,29477.31
1051600.4798,15490.96,5793.19,-3980.49,18821.77,29341.7,16846.33,15988.92,29748.01
1051600.4838,15526.82,5825.0,-3946.78,18862.11,28847.27,16404.34,14250.09,29445.99
1051600.4878,15496.78,5667.73,-4037.09,18839.41,28386.26,15973.28,11450.82,29052.07
1051600.4918,15468.41,5622.1,-4075.91,18815.04,28874.45,16394.14,13093.04,29328.06
1051600.4958,15485.72,5766.39,-3998.09,18822.15,29318.62,16812.71,15767.91,29704.62
1051600.4997,15505.12,5822.04,-3957.13,18848.47,28959.71,16486.93,14788.3,29494.58
1051600.5037,15499.5,5689.72,-3996.47,18877.32,28407.77,16003.61,11673.79,29133.94
1051600.5077,15470.55,5609.23,-4035.28,18880.8,28772.55,16316.08,12537.62,29315.05
1051600.5117,15499.31,5754.57,-3984.4,18849.99,29316.19,16804.6,15490.82,29717.02
1051600.5157,15529.97,5853.37,-3959.94,18832.02,29097.85,16593.65,15318.59,29587.89
1051600.5197,15501.31,5736.02,-4007.29,18842.65,28458.98,16011.24,12065.84,29116.97
1051600.5237,15477.56,5623.58,-4058.6,18843.13,28682.28,16216.09,12106.61,29252.25
1051600.5277,15488.2,5731.54,-4001.47,18839.36,29277.14,16764.93,15116.98,29744.72
1051600.5317,15506.41,5842.4,-3932.24,18845.7,29219.39,16733.36,15693.81,29803.61
1051600.5357,15503.79,5759.67,-3967.95,18862.58,28542.09,16110.99,12540.25,29277.76
1051600.5397,15471.75,5616.43,-4050.21,18853.57,28562.79,16123.15,11687.42,29221.3
1051600.5437,15467.79,5686.14,-4038.67,18813.61,29191.35,16642.76,14653.78,29569.92
1051600.5477,15511.9,5821.61,-3974.96,18819.24,29327.92,16752.29,16009.05,29724.55
1051600.5517,15517.19,5785.75,-3966.05,18864.35,28658.92,16193.73,13123.23,29346.52
1051600.5557,15486.43,5631.88,-4042.67,18875.22,28461.17,15997.13,11402.66,29090.65
1051600.5597,15474.99,5662.87,-4031.94,18847.18,29076.68,16562.8,14078.95,29577.26
1051600.5637,15494.16,5805.83,-3961.61,18833.69,29311.85,16778.47,15939.57,29781.39
1051600.5677,15504.36,5795.57,-3972.15,18836.31,28731.25,16227.68,13652.8,29325.3
1051600.5717,15466.26,5642.61,-4064.04,18831.3,28388.17,15915.78,11288.6,29038.15
1051600.5757,15477.66,5648.71,-4054.64,18820.43,28978.88,16447.74,13538.46,29446.8
1051600.5797,15518.38,5801.2,-3965.09,18840.6,29346.28,16785.96,15899.8,29772.09
1051600.5837,15517.52,5818.03,-3951.79,18848.71,28852.66,16328.38,14243.32,29415.9
1051600.5877,15489.06,5669.17,-4022.36,18841.13,28385.69,15905.1,11413.15,29034.05
1051600.5917,15476.66,5633.5,-4059.41,18821.53,28869.35,16352.7,12982.99,29391.01
1051600.5957,15511.61,5789.23,-3967.09,18834.16,29347.14,16785.0,15746.26,29766.66
1051600.5997,15528.16,5842.11,-3926.61,18858.05,29010.49,16478.35,14872.46,29564.77
1051600.6037,15491.96,5695.53,-4002.05,18857.53,28431.51,15960.41,11724.81,29137.76
1051600.6077,15455.39,5596.59,-4069.61,18826.06,28753.47,16272.5,12447.88,29369.6
1051600.6117,15480.52,5741.26,-3988.27,18836.64,29316.91,16785.29,15417.01,29822.07
1051600.6157,15508.61,5836.87,-3939.25,18844.75,29133.47,16600.8,15339.04,29690.17
1051600.6197,15484.62,5716.9,-4005.43,18834.64,28486.45,16005.85,12099.22,29201.65
1051600.6237,15454.25,5590.15,-4081.15,18815.09,28662.16,16163.88,11999.08,29275.37
1051600.6276,15487.1,5713.56,-4018.12,18821.86,29279.62,16711.28,15049.36,29722.26
1051600.6316,15516.43,5831.77,-3944.59,18843.46,29235.6,16662.7,15697.1,29713.97
1051600.6356,15487.58,5732.44,-3997.23,18830.25,28578.43,16058.59,12600.14,29241.28
1051600.6396,15448.0,5588.53,-4074.0,18808.22,28608.47,16098.6,11692.33,29275.9
1051600.6436,15458.16,5675.03,-4042.82,18796.21,29218.63,16619.97,14590.65,29642.49
1051600.6476,15507.75,5832.05,-3949.21,18838.55,29298.36,16682.34,15871.53,29673.77
1051600.6516,15514.9,5792.67,-3954.55,18870.21,28642.75,16098.31,13066.05,29232.41
1051600.6556,15489.39,5636.65,-4041.53,18855.19,28486.68,15965.32,11369.37,29156.78
1051600.6596,15484.24,5680.37,-4019.93,18842.99,29102.19,16505.29,13995.17,29542.59
1051600.6636,15501.74,5823.9,-3943.97,18828.92,29354.53,16704.28,15937.47,29675.2
1051600.6676,15524.82,5821.99,-3929.66,18862.3,28791.19,16198.3,13712.36,29311.33
1051600.6716,15492.01,5655.96,-4023.5,18855.29,28460.7,15929.22,11333.9,29112.63
1051600.6756,15472.22,5640.51,-4042.05,18838.69,29016.16,16417.17,13504.08,29474.69
1051600.6796,15493.3,5780.36,-3980.45,18811.9,29378.8,16737.61,15884.64,29752.97
1051600.6836,15503.27,5808.07,-3970.72,18808.51,28903.87,16306.21,14311.94,29448.89
1051600.6876,15492.82,5679.99,-4025.6,18819.0,28438.24,15902.71,11443.81,29128.36
1051600.6915,15462.4,5615.24,-4068.9,18809.37,28897.62,16323.28,12928.3,29444.51
1051600.6955,15462.4,5752.9,-3983.83,18814.04,29369.07,16759.11,15713.26,29832.94
1051600.6995,15508.37,5838.35,-3938.25,18830.64,29030.99,16459.13,14891.67,29661.56
1051600.7035,15499.5,5717.09,-3994.42,18850.09,28447.44,15907.48,11727.48,29132.27
1051600.7075,15466.45,5622.82,-4047.82,18846.42,28778.22,16210.03,12414.17,29332.45
1051600.7115,15497.97,5756.09,-3983.26,18839.89,29338.55,16719.87,15390.11,29808.1
1051600.7155,15526.2,5851.17,-3935.05,18843.08,29164.13,16541.53,15391.64,29680.11
1051600.7195,15500.93,5731.82,-3992.03,18840.6,28501.51,15915.78,12115.77,29108.91
1051600.7235,15460.3,5596.26,-4071.0,18816.9,28651.29,16052.15,11901.9,29189.73
1051600.7275,15469.27,5702.07,-4023.41,18803.07,29262.5,16582.11,14931.97,29593.52
1051600.7315,15507.27,5841.35,-3947.12,18826.63,29268.27,16600.56,15700.39,29687.07
1051600.7355,15496.11,5754.66,-3976.77,18844.37,28612.81,16021.11,12613.2,29275.8
1051600.7395,15450.29,5595.97,-4070.23,18812.09,28578.81,15974.0,11549.33,29158.74
1051600.7435,15464.21,5689.57,-4026.32,18814.95,29221.73,16547.87,14458.94,29636.96
1051600.7475,15512.09,5843.93,-3928.71,18850.19,29353.29,16675.52,15863.33,29783.35
1051600.7515,15493.59,5785.8,-3948.16,18856.86,28677.13,16051.91,13073.4,29258.35
1051600.7555,15463.31,5629.59,-4030.42,18847.9,28496.46,15895.94,11305.24,29129.89
1051600.7595,15468.79,5666.11,-4020.36,18827.2,29126.55,16460.47,13951.83,29575.02
1051600.7635,15496.83,5807.35,-3956.75,18821.62,29374.32,16660.6,15923.98,29726.94
1051600.7675,15492.77,5798.44,-3966.05,18818.52,28797.53,16143.61,13714.27,29353.05
1051600.7715,15462.64,5637.6,-4050.35,18816.0,28459.46,15865.47,11305.24,29142.81
1051600.7755,15452.82,5621.34,-4051.69,18809.7,29023.94,16366.29,13448.14,29531.15
1051600.7795,15477.75,5775.21,-3972.01,18816.04,29387.57,16696.03,15841.96,29820.68
1051600.7835,15481.52,5796.96,-3967.0,18816.57,28918.32,16267.35,14340.64,29510.31
1051600.7875,15466.41,5652.38,-4022.74,18842.17,28422.98,15796.57,11425.35,29073.62
1051600.7915,15438.65,5595.11,-4063.18,18823.34,28891.66,16192.1,12872.75,29332.4
1051600.7955,15469.36,5757.52,-3986.36,18821.91,29366.12,16630.41,15622.95,29732.18
1051600.7995,15489.48,5815.08,-3952.6,18839.17,29045.16,16339.92,14875.32,29534.49
1051600.8035,15457.68,5659.01,-4038.57,18817.33,28438.19,15794.57,11664.92,29089.26
1051600.8075,15423.59,5571.8,-4095.41,18799.74,28765.44,16089.63,12283.04,29295.54
1051600.8115,15453.82,5725.53,-4014.02,18809.42,29333.12,16610.77,15286.64,29735.23
1051600.8155,15489.06,5833.1,-3956.7,18817.57,29165.89,16449.41,15349.06,29619.17
1051600.8194,15471.7,5725.53,-3994.18,18830.78,28508.62,15856.32,12093.74,29144.24
1051600.8234,15439.18,5592.16,-4070.0,18819.76,28671.84,16008.76,11858.23,29251.77
1051600.8274,15455.01,5696.44,-4031.23,18801.17,29295.92,16570.62,14906.79,29730.04
1051600.8314,15481.86,5828.72,-3954.36,18819.53,29283.43,16562.7,15710.98,29739.62
1051600.8354,15484.62,5757.86,-3967.57,18855.34,28597.79,15934.33,12612.87,29203.85
1051600.8394,15469.7,5620.58,-4031.8,18856.96,28562.84,15936.33,11460.35,29231.27
1051600.8434,15462.83,5676.32,-4019.79,18826.68,29196.65,16481.31,14374.97,29648.78
1051600.8474,15483.71,5811.26,-3961.37,18820.1,29371.88,16630.65,15919.21,29829.41
1051600.8514,15478.28,5757.76,-3975.34,18834.16,28717.66,16005.9,13187.89,29292.59
1051600.8554,15433.31,5600.17,-4063.85,18835.98,28500.27,15820.55,11272.81,29122.93
1051600.8594,15432.45,5634.5,-4063.27,18797.35,29123.02,16357.9,13886.12,29534.87
1051600.8634,15466.64,5785.18,-3977.78,18796.11,29399.92,16608.14,15928.46,29775.53
1051600.8674,15468.65,5772.78,-3976.97,18808.08,28820.95,16088.54,13760.52,29376.18
1051600.8714,15447.48,5614.33,-4047.73,18824.29,28456.02,15754.32,11259.32,29069.28
1051600.8754,15434.41,5606.8,-4057.6,18809.89,29014.73,16269.26,13322.21,29485.61
1051600.8794,15461.73,5759.38,-3994.56,18792.11,29395.63,16603.04,15792.28,29759.32
1051600.8834,15477.47,5782.99,-3982.21,18801.5,28936.2,16188.96,14338.83,29469.06
1051600.8874,15453.01,5638.7,-4041.05,18819.24,28426.32,15748.5,11375.14,29107.96
1051600.8914,15425.87,5582.38,-4068.76,18816.0,28886.85,16150.0,12787.53,29388.34
1051600.8954,15447.19,5723.48,-3992.37,18810.94,29365.83,16568.33,15563.63,29749.02
1051600.8994,15476.56,5798.25,-3956.18,18819.62,29066.38,16283.9,14919.19,29545.45
1051600.9034,15450.43,5656.91,-4038.57,18808.22,28481.44,15756.99,11721.28,29117.11
1051600.9074,15418.05,5568.6,-4100.28,18797.97,28794.91,16064.93,12258.05,29398.83
1051600.9114,15442.56,5705.88,-4025.03,18797.21,29382.18,16577.67,15316.77,29820.73
1051600.9154,15461.97,5802.44,-3973.96,18799.02,29223.73,16405.73,15465.69,29677.92
1051600.9194,15462.97,5705.31,-4018.97,18805.98,28549.39,15810.21,12162.4,29213.53
1051600.9234,15438.22,5586.91,-4080.44,18798.21,28680.76,15926.51,11824.75,29257.25
1051600.9274,15466.69,5711.03,-4012.25,18802.31,29284.15,16459.13,14823.63,29669.0
1051600.9314,15490.92,5828.29,-3953.46,18802.84,29293.4,16446.07,15735.44,29679.35
1051600.9354,15458.87,5733.44,-3994.27,18810.23,28617.53,15824.18,12669.99,29179.91
1051600.9394,15440.13,5592.97,-4049.83,18826.53,28590.35,15815.83,11522.72,29162.41
1051600.9434,15449.43,5675.75,-4005.05,18819.76,29207.14,16395.95,14350.7,29654.89
1051600.9473,15468.12,5798.01,-3957.84,18812.85,29359.01,16505.39,15917.21,29756.07
1051600.9513,15492.82,5764.68,-3972.72,18828.59,28709.84,15926.27,13196.9,29299.69
1051600.9553,15447.86,5610.99,-4060.13,18816.04,28493.55,15738.54,11280.25,29138.52
1051600.9593,15449.86,5650.09,-4043.58,18819.38,29117.64,16305.59,13846.69,29604.25
1051600.9633,15471.75,5801.68,-3976.2,18804.6,29406.79,16556.41,15951.78,29828.84
1051600.9673,15476.18,5795.77,-3982.4,18800.45,28819.76,16025.35,13790.42,29412.27
1051600.9713,15440.85,5621.91,-4069.76,18787.2,28449.2,15709.4,11251.88,29143.05
1051600.9753,15437.27,5603.46,-4085.16,18771.7,29013.45,16213.71,13291.07,29528.43
1051600.9793,15463.83,5757.05,-3999.66,18778.04,29411.13,16565.13,15809.16,29837.33
1051600.9833,15478.37,5792.57,-3973.87,18803.03,28947.31,16139.99,14371.83,29503.4
1051600.9873,15445.0,5651.19,-4040.43,18821.86,28454.97,15723.28,11423.97,29178.81
1051600.9913,15438.84,5603.5,-4061.41,18802.45,28893.43,16110.71,12746.57,29433.21
1051600.9953,15456.06,5749.66,-3990.46,18789.34,29351.48,16499.33,15526.2,29713.16
1051600.9993,15455.68,5792.09,-3967.14,18791.77,29059.13,16239.6,14918.19,29558.81
1051601.0033,15416.19,5641.6,-4032.56,18808.8,28455.21,15682.99,11730.1,29074.62
1051601.0073,15415.91,5565.55,-4096.79,18787.39,28738.65,15926.79,12197.11,29210.28
1051601.0113,15458.35,5729.34,-4018.55,18781.85,29300.65,16447.83,15208.2,29665.9
1051601.0153,15490.96,5835.58,-3955.98,18797.02,29182.53,16346.6,15459.49,29673.48
1051601.0193,15478.14,5732.39,-4006.67,18796.59,28492.64,15754.61,12134.22,29226.64
1051601.0233,15439.32,5591.54,-4073.67,18799.93,28604.42,15851.83,11691.29,29253.68
1051601.0273,15440.18,5680.28,-4030.9,18782.24,29224.4,16399.34,14743.14,29713.11
1051601.0313,15480.95,5814.03,-3962.99,18783.29,29245.52,16394.81,15710.78,29708.82
1051601.0353,15480.57,5749.18,-4000.14,18787.53,28589.3,15784.79,12696.22,29228.64
1051601.0393,15441.18,5592.92,-4084.44,18782.71,28543.19,15738.3,11436.42,29168.13
1051601.0433,15436.22,5656.43,-4036.19,18802.12,29167.61,16294.1,14299.01,29602.91
1051601.0473,15460.06,5793.52,-3957.46,18800.93,29344.04,16441.97,15923.55,29751.16
1051601.0513,15471.41,5755.38,-3967.38,18806.98,28741.22,15903.05,13315.97,29381.71
1051601.0553,15433.98,5602.31,-4052.26,18802.03,28509.86,15695.14,11284.59,29175.67
1051601.0593,15425.25,5629.83,-4051.5,18787.62,29113.2,16221.76,13823.08,29580.64
1051601.0633,15477.61,5790.38,-3984.98,18774.13,29398.25,16472.87,15962.13,29788.97
1051601.0673,15488.2,5793.95,-3985.6,18774.42,28857.57,15995.89,13906.39,29458.72
1051601.0713,15461.16,5642.61,-4039.76,18798.93,28461.41,15633.87,11253.69,29118.26
1051601.0752,15449.34,5621.62,-4045.58,18808.51,28999.52,16117.24,13250.64,29474.17
1051601.0792,15470.65,5769.02,-3968.57,18798.73,29422.53,16506.24,15881.83,29858.5
1051601.0832,15475.61,5799.58,-3954.27,18811.9,28977.64,16109.23,14519.69,29540.3
1051601.0872,15450.67,5650.19,-4035.43,18808.7,28445.1,15613.99,11430.69,29087.26
1051601.0912,15435.08,5585.96,-4075.48,18786.86,28881.27,16015.01,12700.99,29407.6
1051601.0952,15440.9,5717.42,-4011.35,18770.41,29355.86,16435.01,15552.43,29750.02
1051601.0992,15462.78,5783.75,-3968.76,18791.01,29083.21,16194.87,15020.42,29618.7
1051601.1032,15451.96,5669.45,-4024.84,18801.64,28445.63,15638.02,11663.06,29154.45
1051601.1072,15430.07,5573.23,-4091.17,18776.18,28722.96,15870.91,12078.91,29285.34
1051601.1112,15451.72,5702.5,-4024.22,18764.07,29290.35,16366.2,15137.15,29666.95
1051601.1152,15474.46,5804.06,-3959.13,18784.67,29178.43,16280.61,15432.36,29667.0
1051601.1192,15443.28,5679.37,-4031.75,18778.71,28514.72,15679.08,12146.09,29171.66
1051601.1232,15403.32,5552.05,-4106.28,18769.65,28635.55,15781.31,11692.86,29232.84
1051601.1272,15430.5,5675.7,-4037.19,18763.21,29240.9,16337.44,14713.77,29694.8
1051601.1312,15467.17,5813.03,-3966.28,18779.9,29261.64,16356.99,15737.87,29730.7
1051601.1352,15460.83,5734.73,-3998.42,18792.35,28597.5,15744.35,12672.47,29245.57
1051601.1392,15423.59,5570.17,-4092.22,18770.36,28532.89,15673.88,11355.45,29158.31
1051601.1432,15435.46,5641.22,-4055.98,18768.98,29159.98,16241.7,14211.7,29623.66
1051601.1472,15461.92,5790.9,-3975.53,18777.28,29352.48,16440.3,15923.22,29853.4
1051601.1512,15472.37,5765.87,-3984.45,18790.2,28717.38,15862.9,13268.09,29403.26
1051601.1552,15447.67,5610.99,-4059.36,18795.73,28472.52,15632.68,11180.31,29153.16
1051601.1592,15432.55,5625.44,-4056.17,18778.52,29083.02,16150.71,13695.72,29498.49
1051601.1632,15458.16,5773.78,-3988.31,18768.98,29414.23,16452.7,15968.8,29819.59
1051601.1672,15467.07,5778.31,-3981.21,18779.23,28869.82,15974.38,13923.31,29523.14
1051601.1712,15439.23,5615.85,-4061.99,18782.38,28482.68,15608.5,11269.9,29143.58
1051601.1752,15417.34,5586.1,-4093.46,18761.06,28995.9,16041.71,13184.26,29417.47
1051601.1792,15446.62,5747.27,-4000.04,18769.22,29388.43,16420.65,15770.34,29780.82
1051601.1832,15469.6,5797.96,-3969.29,18780.95,28958.23,16021.21,14465.57,29467.92
1051601.1872,15435.36,5661.63,-4035.19,18787.96,28448.82,15556.34,11392.98,29080.3
1051601.1912,15421.58,5593.25,-4075.1,18773.27,28885.65,15962.89,12608.1,29428.2
1051601.1952,15465.55,5737.69,-3994.27,18778.66,29382.14,16407.06,15533.59,29818.97
1051601.1992,15482.38,5819.51,-3954.03,18794.97,29099.75,16130.02,15044.64,29577.21
1051601.2031,15457.35,5685.71,-4027.8,18787.1,28488.21,15579.42,11747.98,29132.75
1051601.2071,15427.4,5581.52,-4087.02,18785.67,28759.15,15833.09,12075.04,29332.16
1051601.2111,15436.84,5692.86,-4027.8,18775.89,29325.39,16341.97,15162.28,29745.73
1051601.2151,15447.14,5777.5,-3984.64,18757.77,29212.29,16242.84,15495.59,29705.96
1051601.2191,15431.26,5672.12,-4035.43,18757.63,28561.98,15651.42,12200.79,29261.88
1051601.2231,15406.37,5560.11,-4096.37,18771.22,28667.36,15734.34,11612.46,29300.6
1051601.2271,15408.76,5659.29,-4057.22,18751.53,29274.09,16240.07,14714.77,29633.72
1051601.2311,15461.83,5792.9,-3985.31,18739.85,29319.15,16286.66,15845.83,29718.64
1051601.2351,15492.97,5759.24,-3984.5,18783.48,28683.19,15755.89,12793.45,29390.91
1051601.2391,15458.97,5615.28,-4052.26,18792.35,28586.58,15667.54,11324.84,29267.27
1051601.2431,15446.47,5657.82,-4044.58,18765.93,29199.84,16195.82,14210.04,29628.8
1051601.2471,15475.8,5795.86,-3973.77,18780.04,29398.87,16331.39,16035.84,29714.25
1051601.2511,15481.38,5766.68,-3984.79,18780.38,28760.15,15764.38,13379.0,29289.77
1051601.2551,15459.49,5610.51,-4050.73,18808.03,28475.05,15550.76,11105.54,29099.23
1051601.2591,15434.55,5621.96,-4043.77,18805.22,29078.44,16071.46,13605.26,29511.41
1051601.2631,15450.67,5772.4,-3984.31,18772.6,29407.41,16363.24,15971.52,29793.7
1051601.2671,15472.08,5781.94,-3992.99,18764.74,28871.64,15881.02,13993.31,29427.72
1051601.2711,15451.0,5627.87,-4064.51,18773.46,28453.21,15519.1,11167.19,29137.04
1051601.2751,15418.77,5591.39,-4092.17,18747.0,28978.4,15992.26,13063.48,29501.11
1051601.2791,15444.66,5749.08,-4009.29,18743.61,29398.25,16367.15,15796.66,29816.82
1051601.2831,15469.51,5792.9,-3979.97,18767.17,29001.62,16019.58,14599.23,29578.83
1051601.2871,15438.61,5638.31,-4050.49,18760.25,28465.99,15538.12,11414.48,29178.86
1051601.2911,15411.14,5566.03,-4087.31,18742.71,28910.45,15953.54,12597.75,29525.66
1051601.2951,15437.56,5703.59,-4027.8,18744.9,29386.38,16378.6,15537.07,29829.08
1051601.2991,15455.2,5782.8,-3981.64,18792.11,29099.99,16082.34,15114.12,29572.4
1051601.3031,15436.13,5679.18,-4024.08,18800.59,28482.73,15545.13,11736.59,29159.26
1051601.3071,15434.46,5590.82,-4083.25,18779.71,28728.63,15759.23,11972.1,29287.96
1051601.3111,15442.33,5708.93,-4047.59,18740.27,29310.99,16289.24,15123.75,29733.76
1051601.3151,15462.45,5801.34,-3983.36,18754.01,29222.21,16199.3,15613.13,29693.51
1051601.3191,15450.0,5705.07,-4013.49,18776.51,28578.67,15609.22,12323.48,29236.89
1051601.3231,15401.75,5562.88,-4104.19,18759.16,28652.39,15675.45,11654.09,29248.43
1051601.3271,15414.38,5655.24,-4074.19,18729.36,29250.82,16211.8,14758.4,29679.35
1051601.331,15469.03,5805.45,-3983.88,18741.56,29306.46,16262.96,15979.67,29746.92
1051601.335,15456.58,5735.92,-4010.58,18751.0,28626.4,15648.8,12869.26,29255.11
1051601.339,15432.17,5584.19,-4088.12,18762.16,28543.38,15569.5,11378.72,29176.62
1051601.343,15427.11,5634.69,-4063.94,18764.78,29162.08,16124.63,14294.2,29626.71
1051601.347,15452.91,5782.51,-3992.46,18751.29,29364.97,16305.59,16188.19,29806.9
1051601.351,15463.93,5757.24,-3990.36,18768.36,28752.14,15759.18,13559.77,29400.02
1051601.355,15425.16,5593.92,-4065.51,18772.89,28481.96,15525.44,11273.1,29197.84
1051601.359,15424.35,5619.72,-4059.98,18760.25,29073.15,16037.9,13764.62,29570.15
1051601.363,15461.07,5773.83,-3987.65,18747.0,29401.5,16321.61,16198.21,29825.36
1051601.367,15462.21,5779.7,-3989.32,18757.82,28883.56,15849.88,14222.62,29495.39
1051601.371,15438.94,5630.02,-4059.46,18772.13,28474.67,15495.97,11365.51,29215.39
1051601.375,15418.87,5601.55,-4081.11,18756.15,28978.73,15945.15,13224.08,29542.64
1051601.379,15454.77,5772.83,-3984.79,18767.31,29417.33,16326.57,16058.59,29857.64
1051601.383,15472.94,5813.93,-3964.71,18765.36,29024.41,15926.32,14918.9,29496.48
1051601.387,15449.86,5664.06,-4041.62,18778.47,28479.96,15471.46,11633.16,29178.19
1051601.391,15412.86,5577.95,-4093.74,18749.53,28867.49,15835.33,12700.46,29480.41
1051601.395,15432.5,5715.08,-4034.81,18729.78,29363.02,16245.27,15755.85,29731.18
1051601.399,15444.9,5785.75,-3996.37,18734.89,29111.01,16021.78,15397.12,29598.14
1051601.403,15421.54,5661.2,-4046.15,18747.81,28502.09,15483.95,11998.32,29184.87
1051601.407,15385.2,5529.83,-4125.64,18709.8,28743.65,15700.06,12186.58,29347.09
1051601.411,15416.19,5675.03,-4075.81,18706.42,29307.66,16189.58,15374.52,29725.08
1051601.415,15455.82,5803.06,-4003.29,18751.34,29214.1,16097.21,15848.83,29691.51
1051601.419,15448.0,5714.8,-4024.08,18770.27,28573.56,15526.73,12533.24,29256.35
1051601.423,15416.48,5571.03,-4094.22,18755.01,28647.81,15610.17,11798.57,29327.87
1051601.427,15421.49,5661.58,-4046.63,18755.68,29251.01,16153.43,14924.1,29744.63
1051601.431,15449.76,5799.72,-3978.11,18758.11,29311.47,16168.07,16142.66,29730.13
1051601.435,15439.94,5729.63,-4025.51,18744.14,28667.02,15595.1,13106.82,29318.48
1051601.439,15414.76,5567.5,-4114.06,18728.64,28543.81,15488.01,11468.46,29226.74
1051601.443,15413.24,5617.14,-4084.87,18728.64,29164.51,16042.95,14382.65,29666.62
1051601.447,15433.03,5755.38,-4017.93,18722.44,29389.19,16219.67,16353.75,29811.82
1051601.451,15445.85,5744.84,-4011.92,18750.81,28795.63,15697.34,13794.33,29441.5
1051601.455,15421.68,5595.54,-4079.77,18769.22,28511.34,15443.14,11437.23,29205.37
1051601.4589,15402.37,5589.77,-4096.79,18730.79,29094.99,15991.31,13891.03,29687.79
1051601.4629,15426.78,5740.21,-4047.92,18700.32,29410.65,16250.56,16324.67,29857.83
1051601.4669,15434.65,5761.19,-4051.88,18701.32,28896.62,15772.3,14436.2,29490.38
1051601.4709,15424.44,5624.58,-4091.69,18723.92,28458.41,15381.05,11485.05,29139.38
1051601.4749,15421.96,5597.02,-4086.92,18737.37,28970.63,15834.19,13295.27,29487.76
1051601.4789,15444.61,5742.22,-4011.68,18727.02,29408.46,16222.86,16151.24,29804.23
1051601.4829,15442.99,5784.42,-3991.32,18741.04,29014.97,15873.82,15033.2,29544.26
1051601.4869,15413.43,5645.37,-4057.26,18756.63,28450.44,15383.48,11710.31,29160.55
1051601.4909,15398.5,5562.88,-4097.37,18752.67,28841.12,15738.16,12720.35,29417.09
1051601.4949,15411.52,5686.95,-4034.57,18732.41,29368.83,16211.65,15816.17,29809.91
1051601.4989,15417.77,5765.39,-4004.53,18726.83,29157.59,16016.44,15582.28,29679.68
1051601.5029,15438.51,5672.17,-4060.03,18727.92,28528.41,15445.38,12149.38,29215.86
1051601.5069,15438.8,5582.14,-4111.62,18709.23,28744.65,15630.29,12230.11,29322.72
1051601.5109,15464.31,5702.07,-4045.58,18686.63,29314.19,16142.27,15366.6,29740.48
1051601.5149,15519.38,5835.25,-3969.19,18728.4,29262.5,16100.65,15942.1,29752.73
1051601.5189,15532.07,5759.19,-4002.29,18731.55,28616.62,15524.1,12633.13,29319.86
1051601.5229,15499.31,5619.91,-4080.01,18719.25,28641.28,15542.41,11770.15,29295.26
1051601.5269,15530.73,5723.62,-4017.97,18706.94,29238.9,16064.69,14857.72,29697.85
1051601.5309,15562.54,5858.52,-3952.69,18695.79,29329.78,16115.95,16188.19,29744.87
1051601.5349,15568.31,5809.98,-3985.21,18698.22,28676.42,15547.52,13165.14,29347.28
1051601.5389,15553.43,5659.15,-4055.69,18688.39,28552.06,15477.13,11490.01,29323.39
1051601.5429,15546.99,5700.49,-4033.52,18671.56,29155.45,15978.86,14338.35,29605.34
1051601.5469,15576.27,5847.65,-3962.99,18662.93,29375.03,16151.81,16320.23,29734.81
1051601.5509,15595.01,5840.59,-3968.91,18678.0,28788.71,15640.21,13822.89,29393.39
1051601.5549,15547.66,5666.97,-4071.67,18664.51,28469.28,15354.92,11386.21,29142.62
1051601.5589,15531.97,5665.64,-4076.82,18635.9,29024.56,15852.79,13708.59,29519.04
1051601.5629,15563.54,5824.81,-3995.71,18632.46,29393.63,16188.43,16253.28,29832.18
1051601.5669,15583.9,5840.35,-3973.2,18651.92,28908.59,15739.87,14453.37,29494.29
1051601.5709,15549.47,5682.37,-4048.68,18675.62,28464.75,15349.82,11479.28,29166.94
1051601.5749,15529.83,5652.19,-4075.43,18667.84,28947.88,15793.04,13152.46,29523.33
1051601.5789,15576.03,5821.99,-4002.19,18645.96,29398.11,16188.29,16025.4,29858.78
1051601.5829,15602.83,5869.53,-3966.52,18658.12,29025.65,15826.89,15001.44,29590.8
1051601.5868,15583.23,5741.41,-4020.12,18686.44,28474.76,15338.71,11692.67,29201.32
1051601.5908,15553.19,5655.43,-4063.56,18673.61,28851.18,15664.05,12604.19,29429.34
1051601.5948,15565.25,5783.89,-3998.23,18659.16,29390.0,16122.82,15746.88,29802.04
1051601.5988,15593.05,5875.49,-3953.22,18662.26,29169.37,15926.51,15558.39,29682.78
1051601.6028,15563.11,5749.61,-4016.45,18667.03,28531.46,15329.41,12110.0,29143.48
1051601.6068,15541.6,5621.39,-4096.84,18655.49,28729.82,15506.6,12088.44,29236.18
1051601.6108,15550.71,5728.2,-4044.72,18639.19,29317.19,16046.0,15293.22,29715.97
1051601.6148,15564.68,5848.46,-3974.44,18651.82,29283.72,16017.77,15973.09,29769.9
1051601.6188,15554.86,5772.64,-4015.88,18654.01,28612.14,15400.36,12629.75,29237.61
1051601.6228,15523.48,5634.4,-4103.04,18639.61,28647.71,15435.7,11749.79,29237.46
1051601.6268,15547.42,5727.72,-4039.0,18637.04,29248.43,15981.1,14857.34,29679.64
1051601.6308,15585.0,5857.42,-3972.72,18625.21,29340.65,16041.52,16243.51,29718.88
1051601.6348,15587.47,5806.45,-4000.0,18649.39,28706.51,15476.13,13279.15,29296.5
1051601.6388,15554.33,5648.57,-4075.62,18665.51,28549.34,15344.62,11470.08,29178.48
1051601.6428,15545.47,5691.72,-4055.31,18650.82,29181.34,15901.71,14387.18,29606.54
1051601.6468,15556.86,5836.11,-3970.81,18643.38,29407.46,16112.04,16381.36,29822.5
1051601.6508,15578.56,5823.52,-3972.63,18661.64,28842.98,15619.47,13946.15,29466.06
1051601.6548,15558.29,5669.31,-4050.64,18671.37,28513.05,15324.69,11400.03,29187.06
1051601.6588,15544.8,5666.02,-4053.07,18661.5,29094.56,15847.3,13782.88,29602.67
1051601.6628,15569.45,5817.65,-3981.35,18656.16,29455.9,16156.87,16394.24,29883.44
1051601.6668,15593.67,5852.32,-3960.23,18679.76,28961.19,15718.65,14588.5,29559.71
1051601.6708,15561.3,5692.43,-4046.49,18666.7,28492.88,15284.35,11512.38,29150.97
1051601.6748,15531.59,5638.65,-4077.24,18643.1,28974.35,15724.09,13166.57,29500.77
1051601.6788,15555.43,5794.1,-3995.23,18637.28,29450.61,16151.14,16161.97,29891.21
1051601.6828,15573.98,5842.88,-3979.64,18638.28,29118.73,15869.29,15239.77,29771.19
1051601.6868,15548.61,5701.54,-4060.13,18631.41,28503.04,15299.56,11752.8,29201.89
1051601.6908,15534.55,5625.68,-4108.52,18615.3,28825.76,15578.84,12510.21,29357.72
1051601.6948,15567.97,5784.85,-4009.68,18631.27,29370.17,16058.26,15699.05,29783.54
1051601.6988,15574.84,5865.81,-3963.04,18647.48,29182.15,15865.42,15632.3,29643.25
1051601.7028,15557.58,5747.99,-4014.97,18661.02,28539.33,15278.25,12126.35,29116.73
1051601.7068,15543.75,5628.44,-4107.0,18636.85,28712.8,15454.34,11979.87,29238.51
1051601.7108,15544.46,5730.2,-4053.97,18615.15,29320.01,15995.79,15247.49,29699.52
1051601.7147,15563.16,5841.69,-3985.5,18620.16,29287.63,15977.62,15978.96,29730.23
1051601.7187,15580.51,5780.08,-4005.53,18643.48,28620.53,15379.14,12616.68,29243.57
1051601.7227,15576.65,5652.71,-4067.37,18657.88,28636.17,15404.8,11586.86,29257.21
1051601.7267,15582.28,5727.34,-4034.85,18633.56,29255.58,15961.36,14727.5,29708.68
1051601.7307,15609.89,5864.19,-3967.86,18627.46,29362.49,16030.74,16191.77,29749.21
1051601.7347,15625.14,5825.76,-3984.31,18632.03,28723.15,15460.25,13197.71,29304.46
1051601.7387,15580.08,5656.0,-4077.39,18611.72,28569.03,15333.27,11334.28,29193.55
1051601.7427,15592.2,5698.92,-4052.31,18606.47,29181.72,15869.76,14175.32,29632.71
1051601.7467,15634.73,5864.62,-3951.17,18633.65,29439.79,16095.93,16285.8,29853.54
1051601.7507,15629.29,5849.65,-3977.87,18630.55,28869.54,15605.02,13876.96,29542.83
1051601.7547,15589.33,5688.38,-4070.14,18627.12,28539.47,15308.67,11268.0,29289.77
1051601.7587,15573.41,5679.56,-4074.43,18595.84,29096.99,15750.93,13580.94,29519.08
1051601.7627,15598.25,5828.76,-4000.0,18582.82,29466.54,16052.2,16255.81,29733.57
1051601.7667,15613.7,5862.52,-3984.21,18594.22,28987.79,15655.47,14541.06,29502.16
1051601.7707,15596.68,5713.42,-4042.48,18604.71,28530.41,15274.38,11427.83,29216.91
1051601.7747,15584.38,5661.63,-4070.33,18598.56,28966.33,15667.15,12951.04,29488.57
1051601.7787,15606.74,5809.74,-3990.13,18602.14,29424.43,16075.09,15951.68,29835.37
1051601.7827,15620.81,5868.05,-3967.24,18606.14,29078.34,15745.36,15086.94,29575.26
1051601.7867,15617.47,5744.08,-4031.94,18615.39,28493.69,15231.33,11632.11,29120.5
1051601.7907,15574.03,5649.71,-4091.36,18599.04,28813.27,15532.45,12323.86,29347.38
1051601.7947,15580.37,5773.02,-4033.52,18573.43,29369.02,16016.29,15579.65,29742.77
1051601.7987,15609.08,5857.42,-3983.78,18585.64,29193.36,15862.71,15593.82,29658.18
1051601.8027,15598.35,5751.85,-4020.12,18614.2,28550.34,15307.33,12052.25,29211.0
1051601.8067,15581.09,5640.65,-4088.26,18614.44,28738.6,15476.37,11869.77,29281.33
1051601.8107,15576.32,5731.01,-4058.89,18572.86,29348.14,16019.54,15189.84,29746.92
1051601.8147,15592.96,5852.84,-4003.48,18554.74,29304.36,15977.43,15975.62,29771.81
1051601.8187,15611.75,5789.71,-4018.64,18586.59,28640.89,15405.42,12600.57,29328.73
1051601.8227,15582.28,5650.57,-4082.39,18611.1,28639.84,15391.45,11484.0,29258.54
1051601.8267,15581.9,5730.06,-4047.82,18596.7,29266.98,15954.64,14646.82,29746.2
1051601.8307,15612.56,5870.63,-3981.78,18583.97,29384.81,16042.81,16179.99,29833.13
1051601.8347,15620.19,5826.95,-4005.96,18597.51,28768.26,15481.66,13256.98,29371.03
1051601.8387,15588.57,5661.63,-4078.25,18596.84,28579.57,15326.6,11269.95,29221.16
1051601.8426,15583.52,5702.11,-4056.79,18595.27,29188.35,15910.82,14060.64,29743.2
1051601.8466,15605.93,5853.13,-3982.12,18589.07,29450.32,16109.47,16239.12,29864.74
1051601.8506,15611.46,5835.92,-3989.03,18594.12,28871.16,15572.45,13853.46,29440.74
1051601.8546,15569.64,5651.86,-4096.7,18563.08,28522.54,15250.21,11196.9,29136.9
1051601.8586,15562.82,5662.01,-4100.04,18565.37,29092.22,15752.56,13495.45,29517.61
1051601.8626,15608.46,5830.24,-4000.33,18588.02,29446.51,16078.66,16118.15,29818.16
1051601.8666,15625.48,5860.14,-3973.82,18602.04,28962.85,15656.62,14454.8,29479.32
1051601.8706,15582.37,5695.3,-4053.97,18599.89,28468.76,15233.8,11252.6,29132.51
1051601.8746,15549.9,5624.49,-4100.8,18581.63,28928.9,15644.03,12793.73,29446.65
1051601.8786,15591.1,5786.94,-4028.03,18573.91,29420.19,16099.12,15905.67,29865.65
1051601.8826,15621.09,5865.29,-3986.79,18593.5,29084.11,15801.48,15102.82,29643.92
1051601.8866,15595.87,5727.1,-4058.08,18583.68,28486.68,15264.85,11593.15,29185.25
1051601.8906,15557.0,5606.56,-4131.94,18541.77,28802.21,15540.65,12239.27,29363.06
1051601.8946,15569.78,5742.79,-4058.46,18538.43,29335.31,16021.92,15484.0,29766.13
1051601.8986,15611.22,5864.05,-3990.94,18574.96,29173.62,15893.13,15564.59,29740.81
1051601.9026,15598.97,5749.85,-4049.02,18584.25,28552.87,15343.33,12076.67,29311.71
1051601.9065,15568.07,5619.53,-4118.16,18558.84,28693.35,15455.68,11745.36,29340.18
1051601.9105,15595.25,5739.83,-4037.95,18571.43,29292.63,15988.35,15033.2,29760.03
1051601.9145,15613.94,5872.11,-3969.77,18595.36,29258.21,15929.08,15907.1,29704.62
1051601.9185,15617.47,5801.87,-4012.44,18604.42,28586.39,15347.01,12543.35,29263.69
1051601.9225,15577.51,5641.65,-4108.76,18588.02,28581.34,15343.72,11345.82,29219.44
1051601.9265,15559.1,5691.0,-4088.55,18558.27,29208.95,15887.64,14506.39,29660.75
1051601.9305,15594.53,5824.52,-4007.05,18553.16,29338.7,16004.04,16113.62,29787.64
1051601.9345,15595.87,5788.52,-4027.56,18564.04,28701.5,15442.47,13168.96,29356.53
1051601.9385,15562.49,5637.36,-4110.77,18560.22,28502.85,15274.0,11089.95,29194.64
1051601.9425,15574.31,5678.89,-4087.26,18548.16,29116.25,15811.35,13893.89,29612.59
1051601.9465,15606.79,5834.25,-4006.86,18554.98,29401.5,16051.82,16143.85,29839.95
1051601.9505,15612.32,5827.33,-4000.0,18582.87,28851.89,15547.04,13856.13,29444.13
1051601.9545,15585.95,5672.5,-4071.95,18598.84,28511.0,15259.65,11130.86,29234.6
1051601.9585,15571.83,5647.8,-4082.49,18588.02,29043.49,15717.65,13327.46,29539.78
1051601.9625,15598.35,5809.45,-4002.62,18576.48,29409.08,16037.18,15995.7,29807.43
1051601.9665,15602.69,5844.16,-4005.48,18564.18,28974.73,15644.22,14479.73,29536.78
1051601.9705,15576.36,5692.34,-4082.16,18572.81,28490.69,15199.57,11268.76,29130.99
1051601.9745,15558.39,5629.02,-4119.92,18559.51,28935.96,15597.58,12701.7,29442.84
1051601.9785,15570.17,5764.2,-4043.39,18538.62,29410.22,15998.41,15807.39,29760.17
1051601.9825,15606.69,5851.08,-3982.26,18560.46,29111.63,15733.43,15128.28,29594.57
1051601.9865,15594.44,5727.43,-4048.2,18576.91,28521.21,15239.29,11602.59,29232.93
1051601.9905,15548.66,5607.94,-4126.12,18546.73,28796.72,15479.09,12107.28,29385.9
1051601.9945,15571.31,5746.65,-4048.92,18546.25,29362.73,15991.83,15423.01,29823.12
1051601.9985,15608.26,5858.23,-3977.44,18570.47,29230.5,15871.57,15656.43,29749.11
1051602.0025,15586.33,5744.51,-4026.99,18585.4,28541.38,15240.81,12039.33,29186.44
1051602.0065,15552.47,5625.87,-4111.48,18570.14,28672.27,15353.4,11662.29,29247.34
1051602.0105,15580.18,5743.74,-4046.92,18564.51,29282.72,15912.87,14977.36,29731.42
1051602.0145,15615.32,5869.82,-3968.57,18583.25,29290.87,15933.71,15982.68,29793.6
1051602.0185,15602.97,5780.75,-4007.39,18591.98,28612.66,15336.32,12625.41,29302.93
1051602.0225,15568.69,5628.25,-4088.07,18590.83,28571.66,15289.98,11318.49,29210.86
1051602.0265,15557.39,5698.25,-4062.75,18567.61,29195.41,15826.99,14455.13,29636.34
1051602.0305,15598.82,5853.89,-3993.08,18551.97,29344.42,15964.56,16172.08,29800.08
1051602.0344,15618.71,5830.05,-3996.18,18568.95,28706.84,15425.92,13249.45,29395.77
1051602.0384,15574.7,5660.49,-4073.67,18581.11,28511.15,15258.98,11145.88,29226.02
1051602.0424,15580.94,5693.82,-4061.99,18582.25,29116.92,15792.99,13907.62,29645.49
1051602.0464,15595.1,5834.96,-3996.85,18580.77,29393.15,16020.25,16203.79,29834.42
1051602.0504,15586.76,5825.71,-4007.2,18574.91,28837.02,15531.59,13914.11,29463.01
1051602.0544,15571.36,5671.69,-4088.4,18562.61,28475.72,15212.68,11154.37,29177.53
1051602.0584,15562.25,5654.38,-4085.64,18558.41,29049.21,15713.6,13388.68,29575.59
1051602.0624,15579.61,5794.81,-4011.58,18547.97,29407.17,16017.72,16073.51,29828.22
1051602.0664,15608.6,5853.94,-3989.89,18568.57,28942.35,15606.36,14523.98,29507.16
1051602.0704,15602.3,5719.23,-4048.97,18601.37,28425.51,15159.61,11204.43,29105.57
1051602.0744,15586.9,5660.92,-4072.29,18597.99,28860.38,15540.51,12582.78,29381.42
1051602.0784,15590.67,5792.43,-4018.59,18557.03,29366.21,15974.14,15740.21,29784.02
1051602.0824,15600.49,5850.13,-4000.81,18551.73,29087.36,15725.81,15135.43,29646.83
1051602.0864,15574.84,5713.61,-4070.09,18554.12,28478.82,15208.44,11575.75,29230.65
1051602.0904,15543.89,5606.22,-4130.94,18540.24,28775.6,15465.45,12033.99,29397.87
1051602.0944,15577.75,5746.08,-4039.0,18552.02,29353.19,15965.03,15372.52,29797.94
1051602.0984,15612.99,5862.62,-3972.77,18568.76,29205.47,15807.63,15609.7,29670.81
1051602.1024,15602.21,5767.11,-4024.41,18581.87,28556.3,15234.66,12062.79,29218.25
1051602.1064,15564.87,5635.64,-4120.21,18546.87,28689.39,15356.88,11578.7,29297.55
1051602.1104,15574.6,5737.59,-4055.64,18538.76,29312.23,15887.74,14918.0,29714.49
1051602.1144,15611.6,5868.01,-3972.96,18559.89,29330.16,15894.13,15978.0,29756.22
1051602.1184,15612.79,5798.01,-4000.76,18583.25,28669.07,15322.02,12670.18,29316.24
1051602.1224,15580.37,5649.04,-4088.64,18581.11,28615.29,15283.3,11257.22,29258.11
1051602.1264,15575.65,5708.31,-4062.22,18564.61,29251.29,15828.04,14414.46,29687.31
1051602.1304,15608.69,5853.75,-3972.77,18575.43,29414.61,15979.01,16188.67,29846.34
1051602.1344,15614.03,5821.32,-3993.32,18580.63,28791.48,15466.36,13330.27,29518.46
1051602.1384,15576.89,5654.48,-4087.78,18578.58,28554.16,15270.43,11102.96,29332.78
1051602.1424,15569.5,5666.35,-4087.07,18547.39,29159.26,15744.59,13870.86,29596.05
1051602.1464,15588.86,5818.37,-4007.91,18549.11,29476.36,16000.8,16298.49,29856.73
1051602.1504,15592.67,5827.71,-3992.18,18572.52,28899.53,15515.76,14022.92,29498.77
1051602.1544,15559.68,5673.08,-4079.53,18574.53,28478.34,15146.4,11083.6,29151.97
1051602.1584,15557.72,5646.61,-4110.48,18545.15,28992.61,15561.49,13190.65,29406.74
1051602.1623,15589.1,5809.98,-4029.32,18533.99,29400.54,15919.4,16027.83,29753.02
1051602.1663,15614.7,5859.66,-3993.61,18552.26,28977.06,15562.39,14610.82,29528.96
1051602.1703,15594.2,5705.02,-4056.64,18567.47,28451.4,15112.69,11245.2,29140.62
1051602.1743,15567.21,5631.64,-4094.17,18563.51,28891.76,15504.84,12607.24,29443.22
1051602.1783,15585.04,5776.79,-4014.68,18555.12,29379.18,15931.8,15749.98,29803.9
1051602.1823,15603.26,5859.9,-3970.67,18562.46,29096.13,15671.92,15222.84,29624.27
1051602.1863,15601.73,5740.55,-4036.52,18567.33,28492.22,15145.83,11650.04,29202.08
1051602.1903,15580.42,5638.31,-4093.27,18554.36,28782.42,15401.08,12052.3,29385.52
1051602.1943,15580.23,5751.32,-4037.67,18541.86,29350.81,15890.7,15409.33,29785.3
1051602.1983,15598.01,5845.88,-3994.04,18547.49,29222.68,15777.11,15748.07,29732.95
1051602.2023,15574.89,5751.75,-4042.15,18559.98,28569.75,15210.39,12170.89,29278.95
1051602.2063,15562.25,5632.12,-4111.81,18553.4,28688.86,15337.28,11602.93,29396.73
1051602.2103,15582.9,5738.02,-4048.16,18550.92,29294.11,15826.75,14931.35,29705.24
1051602.2143,15595.96,5846.83,-3987.65,18544.15,29320.34,15843.11,16086.96,29779.58
1051602.2183,15591.24,5784.7,-4014.21,18570.47,28651.19,15249.97,12738.61,29295.88
1051602.2223,15557.96,5629.21,-4113.15,18552.26,28603.84,15201.71,11284.54,29235.89
1051602.2263,15534.69,5670.17,-4092.26,18515.73,29264.64,15777.26,14475.73,29734.81
1051602.2303,15565.78,5815.17,-4003.76,18516.97,29401.21,15920.97,16253.28,29883.34
1051602.2343,15590.76,5804.92,-4001.71,18546.87,28729.39,15310.24,13297.13,29321.86
1051602.2383,15557.53,5645.18,-4095.84,18556.88,28493.03,15118.84,10998.54,29184.01
1051602.2423,15556.72,5665.73,-4094.32,18536.67,29108.0,15667.63,13719.32,29637.86
1051602.2463,15579.99,5818.89,-4014.78,18521.26,29399.02,15889.22,16145.37,29763.75
1051602.2503,15605.21,5831.05,-4001.19,18538.38,28854.04,15404.85,13945.87,29398.87
1051602.2543,15561.96,5667.5,-4096.03,18537.43,28469.04,15072.49,11047.51,29119.64
1051602.2583,15535.31,5635.69,-4112.58,18532.56,28993.71,15539.89,13106.06,29485.13
1051602.2623,15578.22,5800.44,-4022.65,18545.15,29405.55,15910.1,15975.86,29827.03
1051602.2663,15599.16,5847.36,-3983.93,18569.85,28994.99,15543.18,14620.74,29573.01
1051602.2703,15572.31,5690.81,-4053.45,18576.34,28475.1,15084.6,11274.96,29180.53
1051602.2743,15552.67,5629.21,-4096.56,18559.12,28894.05,15459.4,12520.41,29462.72
1051602.2783,15575.08,5773.59,-4026.41,18539.57,29375.99,15861.04,15672.97,29775.58
1051602.2823,15583.28,5835.06,-4005.05,18527.56,29112.63,15621.95,15202.86,29626.95
1051602.2863,15548.56,5694.34,-4084.06,18522.36,28514.82,15096.86,11658.0,29209.33
1051602.2902,15525.49,5582.95,-4156.64,18497.95,28788.38,15341.43,11967.95,29386.71
1051602.2942,15560.44,5720.62,-4061.32,18513.01,29366.02,15855.93,15316.58,29822.59
1051602.2982,15592.29,5844.12,-3987.84,18541.0,29266.27,15759.95,15738.68,29773.57
1051602.3022,15565.78,5732.68,-4049.02,18545.77,28605.51,15176.2,12181.76,29303.7
1051602.3062,15523.2,5599.79,-4116.39,18541.91,28709.08,15258.12,11518.29,29336.41
1051602.3102,15539.12,5704.45,-4069.81,18516.02,29348.62,15787.98,14908.36,29762.89
1051602.3142,15580.89,5834.1,-4012.2,18514.4,29387.76,15831.9,16110.61,29861.98
1051602.3182,15566.11,5757.67,-4035.33,18543.77,28709.27,15211.54,12789.73,29311.18
1051602.3222,15524.25,5592.25,-4129.6,18531.94,28589.82,15105.87,11131.62,29160.74
1051602.3262,15536.02,5667.4,-4099.66,18524.65,29226.83,15681.41,14264.06,29678.25
1051602.3302,15574.79,5825.47,-4012.35,18535.52,29430.11,15871.19,16228.49,29877.71
1051602.3342,15593.39,5800.39,-4020.74,18547.73,28829.86,15317.68,13495.21,29433.64
1051602.3382,15557.24,5627.3,-4108.1,18535.81,28529.6,15029.1,11031.3,29115.16
1051602.3422,15547.99,5640.17,-4105.19,18522.41,29125.17,15551.71,13689.57,29531.29
1051602.3462,15574.65,5799.1,-4014.92,18528.18,29451.09,15851.07,16195.06,29820.02
1051602.3502,15577.46,5801.01,-4015.3,18522.65,28912.12,15366.13,14089.73,29453.38
1051602.3542,15548.04,5637.74,-4099.18,18529.47,28501.28,15014.13,11078.98,29161.7
1051602.3582,15532.88,5614.57,-4119.21,18530.32,29040.1,15502.6,13108.49,29569.77
1051602.3622,15568.93,5784.56,-4029.23,18523.08,29472.74,15880.78,16047.53,29906.18
1051602.3662,15586.95,5829.29,-4005.24,18528.32,29064.99,15500.88,14776.76,29610.02
1051602.3702,15565.11,5686.19,-4068.57,18538.67,28523.83,15052.7,11314.68,29237.42
1051602.3742,15534.78,5618.67,-4113.77,18529.13,28933.77,15415.91,12497.81,29496.72
1051602.3782,15546.28,5746.56,-4048.16,18522.98,29434.26,15819.65,15722.18,29793.89
1051602.3822,15555.57,5815.17,-4004.53,18526.84,29178.38,15592.05,15344.34,29657.61
1051602.3862,15546.28,5696.2,-4065.99,18543.53,28560.45,15057.85,11742.31,29207.57
1051602.3902,15522.53,5577.33,-4142.33,18506.67,28783.32,15253.93,11925.98,29325.87
1051602.3942,15523.82,5684.66,-4088.55,18487.36,29348.19,15759.99,15266.52,29752.45
1051602.3982,15554.95,5808.26,-4019.21,18516.26,29260.07,15698.72,15775.44,29749.21
1051602.4022,15562.25,5733.97,-4053.88,18538.76,28590.59,15125.18,12197.78,29317.81
1051602.4062,15536.93,5604.17,-4130.46,18528.65,28660.92,15181.88,11438.51,29296.12
1051602.4102,15544.99,5691.39,-4081.2,18521.22,29268.65,15711.83,14728.6,29720.88
1051602.4142,15560.3,5811.88,-4018.83,18505.19,29325.11,15743.16,16060.74,29757.46
1051602.4181,15551.52,5749.85,-4056.5,18511.87,28663.59,15151.45,12788.82,29274.32
1051602.4221,15530.54,5592.78,-4129.84,18528.75,28566.55,15074.64,11126.95,29189.16
1051602.4261,15538.12,5657.15,-4103.99,18517.07,29199.41,15627.39,14182.86,29641.49
1051602.4301,15564.4,5803.49,-4038.14,18505.15,29411.7,15813.92,16201.16,29850.39
1051602.4341,15576.46,5785.99,-4031.56,18512.54,28803.92,15286.64,13447.33,29454.14
1051602.4381,15536.79,5618.72,-4116.11,18517.78,28545.86,15056.23,11029.1,29233.75
1051602.4421,15548.33,5652.09,-4089.93,18543.39,29130.22,15557.72,13590.29,29593.38
1051602.4461,15587.9,5820.75,-3994.51,18554.74,29470.26,15853.74,16166.98,29859.5
1051602.4501,15601.35,5836.39,-3980.49,18562.7,28952.41,15422.06,14113.86,29579.69
1051602.4541,15575.7,5679.51,-4063.08,18552.64,28543.67,15047.84,11103.82,29234.46
1051602.4581,15534.78,5624.82,-4114.63,18521.6,29046.01,15487.58,13015.32,29563.34
1051602.4621,15558.53,5763.2,-4045.06,18500.23,29459.53,15845.83,15934.8,29865.79
1051602.4661,15569.12,5809.93,-4024.22,18507.86,29051.78,15453.53,14710.48,29498.91
1051602.4701,15538.31,5662.63,-4101.61,18514.59,28508.48,14990.62,11264.13,29133.85
1051602.4741,15509.51,5576.28,-4144.57,18492.65,28902.25,15356.69,12344.55,29458.53
1051602.4781,15550.85,5727.24,-4060.22,18503.19,29413.75,15789.08,15590.24,29808.33
1051602.4821,15569.26,5818.18,-4019.64,18511.25,29169.85,15564.3,15267.66,29659.27
1051602.4861,15546.71,5700.97,-4078.87,18523.98,28556.73,15024.38,11685.42,29215.63
1051602.4901,15531.26,5593.49,-4147.15,18507.05,28792.19,15238.33,11815.88,29338.79
1051602.4941,15548.99,5712.94,-4080.87,18497.9,29358.2,15743.45,15181.64,29771.05
1051602.4981,15573.65,5814.41,-4021.26,18518.26,29278.28,15670.68,15746.98,29770.81
1051602.5021,15551.04,5716.52,-4065.13,18534.28,28612.24,15092.33,12226.44,29307.42
1051602.5061,15517.28,5585.29,-4142.81,18508.25,28663.07,15130.9,11350.82,29283.77
1051602.5101,15539.46,5681.56,-4093.17,18495.85,29296.54,15684.61,14693.36,29744.87
1051602.5141,15560.49,5804.49,-4029.94,18505.29,29348.28,15746.79,16032.7,29833.89
1051602.5181,15552.43,5743.98,-4059.03,18515.68,28684.05,15166.43,12812.23,29355.05
1051602.5221,15544.13,5597.07,-4120.64,18525.51,28567.89,15056.99,11069.2,29217.77
1051602.5261,15546.42,5662.73,-4092.93,18515.54,29189.92,15591.77,14129.93,29637.86
1051602.5301,15559.96,5806.49,-4019.12,18515.16,29385.57,15799.33,16151.1,29886.44
1051602.5341,15574.65,5791.66,-4017.26,18542.1,28808.22,15320.59,13480.81,29588.94
1051602.5381,15528.54,5619.34,-4121.97,18524.65,28492.5,14993.24,10914.95,29192.59
1051602.5421,15510.94,5623.39,-4130.13,18494.47,29062.94,15457.54,13450.1,29483.27
1051602.546,15554.81,5782.75,-4040.0,18496.32,29416.42,15776.92,16061.26,29811.96
1051602.55,15575.94,5800.49,-4019.5,18516.4,28909.16,15324.12,14095.98,29460.91
1051602.554,15550.81,5662.78,-4085.26,18538.0,28474.0,14947.08,10969.35,29136.85
