TimeStamp,AF7,FP1,FP2,AF8,O1,O2,I1,I2
1051719.3803,13357.69,4192.26,-5109.17,10491.99,27706.44,-3208.4,4946.47,24775.22
1051719.3843,13369.99,4291.49,-5070.45,10485.36,27754.6,-3195.72,5363.66,24743.7
1051719.3883,13369.47,4240.08,-5082.66,10515.07,27370.12,-3569.79,3884.7,24579.67
1051719.3923,13355.4,4102.95,-5149.6,10504.15,27295.02,-3603.51,3382.59,24584.39
1051719.3963,13349.77,4151.73,-5130.53,10471.06,27673.77,-3225.8,4781.39,24787.95
1051719.4003,13358.02,4253.29,-5079.13,10475.97,27817.73,-3082.32,5492.02,24905.35
1051719.4043,13346.96,4220.77,-5079.56,10501.58,27432.59,-3474.95,4166.94,24670.89
1051719.4083,13336.8,4104.28,-5141.5,10512.93,27274.75,-3611.66,3344.82,24621.82
1051719.4123,13337.71,4121.11,-5160.76,10479.17,27617.12,-3302.05,4568.34,24709.61
1051719.4163,13357.02,4262.73,-5104.3,10449.94,27837.76,-3083.28,5543.38,24847.27
1051719.4203,13377.57,4280.57,-5089.95,10476.4,27509.74,-3387.74,4473.88,24720.34
1051719.4243,13368.32,4145.19,-5130.63,10517.26,27265.31,-3591.59,3335.57,24665.17
1051719.4283,13350.63,4121.97,-5137.06,10497.62,27582.84,-3244.21,4359.15,24894.1
1051719.4323,13390.73,4276.94,-5053.23,10515.79,27847.48,-3021.1,5520.15,24939.3
1051719.4363,13368.75,4282.81,-5069.35,10494.52,27602.72,-3305.77,4836.61,24747.09
1051719.4403,13326.12,4131.65,-5144.93,10482.93,27259.07,-3640.27,3420.07,24581.63
1051719.4443,13312.77,4075.48,-5166.1,10471.06,27474.22,-3420.4,4067.33,24651.63
1051719.4483,13353.83,4227.83,-5091.38,10480.12,27780.35,-3094.86,5338.81,24825.96
1051719.4523,13386.3,4297.4,-5065.78,10478.07,27653.03,-3243.54,5031.44,24762.59
1051719.4563,13376.43,4190.73,-5106.78,10491.23,27302.89,-3576.61,3550.24,24625.73
1051719.4603,13335.04,4075.53,-5177.36,10469.72,27446.89,-3427.98,3877.12,24680.76
1051719.4643,13316.78,4172.33,-5132.15,10455.94,27807.67,-3086.38,5281.59,24844.79
1051719.4683,13340.14,4267.36,-5080.03,10477.02,27769.62,-3087.9,5307.34,24912.03
1051719.4723,13347.2,4185.1,-5120.56,10499.43,27351.67,-3533.75,3750.71,24610.09
1051719.4763,13323.59,4070.33,-5167.34,10498.24,27387.38,-3514.48,3645.8,24563.46
1051719.4803,13327.08,4164.41,-5123.0,10500.72,27751.12,-3135.16,5058.38,24776.22
1051719.4843,13347.29,4284.33,-5068.02,10500.0,27789.88,-3101.06,5463.27,24775.46
1051719.4883,13331.7,4199.65,-5103.59,10494.0,27396.16,-3509.28,3998.42,24560.07
1051719.4923,13287.5,4041.86,-5179.36,10486.75,27301.41,-3571.03,3435.04,24545.39
1051719.4963,13299.94,4122.69,-5143.12,10489.94,27686.98,-3198.05,4815.29,24725.11
1051719.5003,13311.63,4247.38,-5092.76,10478.45,27818.02,-3094.72,5554.72,24730.88
1051719.5043,13314.96,4218.72,-5103.54,10487.99,27464.2,-3426.89,4279.57,24615.82
1051719.5082,13292.03,4074.24,-5172.78,10486.46,27274.66,-3610.33,3359.84,24493.84
1051719.5122,13294.36,4098.18,-5167.82,10477.83,27626.8,-3274.73,4602.0,24643.38
1051719.5162,13312.72,4230.69,-5112.27,10472.87,27835.04,-3066.02,5596.54,24776.7
1051719.5202,13291.36,4219.58,-5124.24,10455.04,27525.05,-3356.46,4572.96,24665.41
1051719.5242,13275.34,4066.13,-5188.56,10444.55,27282.72,-3573.37,3379.35,24616.67
1051719.5282,13261.7,4039.1,-5207.35,10440.88,27565.15,-3301.95,4347.99,24702.65
1051719.5322,13291.41,4197.6,-5120.09,10463.38,27837.09,-3051.71,5550.19,24809.74
1051719.5362,13338.0,4256.82,-5083.9,10489.85,27649.84,-3241.21,4941.51,24772.36
1051719.5402,13327.98,4126.84,-5142.59,10491.9,27297.5,-3578.19,3485.44,24598.27
1051719.5442,13299.66,4068.09,-5179.74,10475.83,27500.92,-3334.47,4102.99,24748.71
1051719.5482,13317.25,4205.51,-5116.75,10472.44,27818.11,-2991.39,5420.26,25003.82
1051719.5522,13325.6,4261.54,-5098.87,10466.34,27681.4,-3168.2,5143.93,24826.82
1051719.5562,13304.09,4146.05,-5144.64,10476.92,27309.52,-3568.41,3622.91,24576.52
1051719.5602,13259.17,4027.32,-5204.96,10461.67,27448.56,-3422.31,3905.77,24660.64
1051719.5642,13278.68,4146.24,-5143.69,10461.86,27778.34,-3070.55,5262.52,24874.88
1051719.5682,13322.78,4261.59,-5079.89,10487.03,27766.56,-3040.55,5366.61,24985.75
1051719.5722,13305.38,4158.83,-5129.29,10480.45,27350.38,-3468.13,3799.96,24713.38
1051719.5762,13275.67,4032.99,-5202.72,10462.86,27362.25,-3485.11,3641.27,24625.21
1051719.5802,13300.37,4132.22,-5154.56,10461.28,27754.21,-3099.16,5097.29,24841.12
1051719.5842,13310.58,4250.43,-5089.95,10471.77,27831.27,-3002.21,5556.44,24945.93
1051719.5882,13266.14,4173.57,-5128.77,10471.25,27434.45,-3391.74,4079.96,24755.53
1051719.5922,13288.45,4065.13,-5187.08,10469.63,27334.65,-3475.38,3485.49,24688.2
1051719.5962,13309.05,4123.74,-5161.86,10455.28,27706.01,-3151.51,4849.91,24764.3
1051719.6002,13328.08,4253.29,-5108.4,10457.71,27855.3,-3000.21,5620.86,24865.53
1051719.6042,13336.47,4228.02,-5101.63,10482.46,27492.1,-3360.94,4334.12,24687.63
1051719.6082,13286.69,4066.04,-5179.79,10469.72,27325.25,-3511.43,3437.61,24625.5
1051719.6122,13262.46,4077.72,-5188.18,10446.5,27671.29,-3162.24,4622.79,24825.91
1051719.6162,13321.69,4239.94,-5104.83,10473.16,27884.06,-2951.29,5624.68,24939.59
1051719.6202,13327.41,4236.7,-5106.88,10469.44,27576.4,-3263.33,4630.66,24771.22
1051719.6242,13288.88,4083.11,-5176.93,10469.25,27313.76,-3534.37,3425.88,24625.21
1051719.6282,13283.06,4058.5,-5192.33,10453.32,27618.98,-3233.43,4367.07,24785.9
1051719.6322,13288.69,4182.86,-5146.55,10429.48,27904.28,-2941.8,5571.89,24979.07
1051719.6361,13300.47,4222.39,-5118.23,10455.99,27673.96,-3171.54,4905.13,24835.4
1051719.6401,13287.02,4097.89,-5164.53,10472.97,27333.64,-3500.32,3478.91,24664.83
1051719.6441,13282.35,4048.16,-5196.05,10470.01,27567.87,-3268.91,4142.71,24769.12
1051719.6481,13307.72,4187.11,-5120.61,10482.03,27880.82,-2983.28,5452.44,24880.13
1051719.6521,13328.84,4255.25,-5091.0,10480.21,27763.47,-3103.35,5190.37,24840.5
1051719.6561,13310.39,4138.23,-5145.26,10484.6,27374.84,-3447.68,3627.87,24713.85
1051719.6601,13259.03,4026.46,-5208.06,10467.82,27497.82,-3312.59,3849.08,24778.99
1051719.6641,13298.66,4166.51,-5135.01,10463.38,27853.78,-2991.1,5260.61,24883.89
1051719.6681,13342.05,4278.09,-5080.8,10477.83,27848.29,-3024.86,5427.27,24870.59
1051719.6721,13320.97,4172.37,-5132.39,10472.35,27426.91,-3449.11,3875.54,24618.01
1051719.6761,13281.97,4027.37,-5210.73,10448.5,27394.11,-3467.13,3595.88,24556.16
1051719.6801,13281.2,4113.25,-5169.68,10444.59,27792.84,-3081.13,5032.44,24787.95
1051719.6841,13300.23,4233.69,-5116.99,10444.36,27867.03,-3005.7,5503.32,24846.94
1051719.6881,13296.94,4174.28,-5144.55,10442.69,27464.73,-3400.52,4059.98,24640.28
1051719.6921,13276.67,4030.37,-5216.31,10447.69,27360.01,-3480.24,3448.15,24602.65
1051719.6961,13297.27,4100.42,-5175.16,10462.19,27737.67,-3087.19,4820.78,24814.75
1051719.7001,13327.89,4236.22,-5110.93,10452.41,27930.17,-2913.24,5651.52,24932.1
1051719.7041,13320.3,4203.7,-5119.94,10454.32,27567.34,-3276.68,4411.51,24728.49
1051719.7081,13296.75,4053.93,-5187.37,10452.27,27356.06,-3467.99,3422.17,24626.21
1051719.7121,13264.99,4054.5,-5212.64,10411.74,27693.27,-3132.06,4604.53,24786.38
1051719.7161,13285.35,4206.56,-5143.6,10408.93,27935.08,-2902.22,5667.83,24909.55
1051719.7201,13323.45,4229.93,-5117.66,10455.85,27650.79,-3197.38,4742.58,24767.26
1051719.7241,13311.91,4103.47,-5160.62,10487.84,27355.39,-3473.14,3469.13,24623.06
1051719.7281,13297.13,4064.13,-5174.45,10485.46,27661.8,-3147.08,4421.76,24823.62
1051719.7321,13312.72,4196.02,-5119.99,10480.36,27934.51,-2853.44,5600.74,25008.35
1051719.7361,13320.73,4242.37,-5114.84,10475.45,27705.82,-3106.12,5011.89,24808.27
1051719.7401,13321.93,4135.08,-5161.0,10471.44,27349.0,-3438.47,3535.27,24637.65
1051719.7441,13296.08,4050.78,-5189.85,10456.52,27583.65,-3211.69,4150.49,24748.71
1051719.7481,13299.42,4170.94,-5121.95,10457.61,27909.9,-2883.86,5488.11,24947.31
1051719.7521,13331.46,4251.91,-5084.94,10462.24,27767.71,-3042.27,5235.24,24815.47
1051719.7561,13311.67,4149.34,-5134.63,10471.3,27346.28,-3463.7,3658.96,24534.37
1051719.7601,13289.17,4047.68,-5187.85,10466.48,27459.58,-3337.19,3856.8,24599.36
1051719.764,13299.23,4153.4,-5142.74,10452.75,27804.28,-2984.81,5240.82,24817.04
1051719.768,13327.31,4244.8,-5099.34,10462.67,27801.33,-3027.39,5422.93,24750.38
1051719.772,13305.57,4167.13,-5132.53,10462.09,27405.12,-3405.52,3919.41,24575.14
1051719.776,13293.55,4053.16,-5187.51,10450.84,27416.9,-3365.8,3687.57,24607.71
1051719.78,13304.14,4131.51,-5168.15,10437.16,27786.12,-3004.17,5068.49,24800.4
1051719.784,13324.64,4250.96,-5116.8,10451.84,27865.94,-2915.1,5581.9,24877.03
1051719.788,13322.88,4197.74,-5132.63,10457.18,27470.83,-3303.77,4182.1,24657.44
1051719.792,13284.11,4052.69,-5180.22,10463.57,27360.2,-3390.69,3545.43,24602.46
1051719.796,13296.03,4105.52,-5150.37,10477.5,27738.29,-3022.48,4872.66,24807.98
1051719.8,13330.65,4252.24,-5084.61,10491.56,27920.11,-2846.29,5716.56,24902.16
1051719.804,13334.9,4226.78,-5099.34,10495.85,27560.38,-3189.61,4504.63,24738.93
1051719.808,13291.79,4060.7,-5186.65,10470.82,27334.17,-3412.53,3499.08,24585.3
1051719.812,13271.67,4056.64,-5195.81,10455.51,27668.86,-3067.68,4615.12,24793.82
1051719.816,13305.62,4217.72,-5109.45,10468.29,27924.73,-2808.52,5680.04,24977.5
1051719.82,13314.92,4220.63,-5111.74,10453.7,27645.07,-3127.29,4808.86,24745.32
1051719.824,13290.74,4080.92,-5168.39,10466.96,27346.09,-3390.88,3520.16,24659.16
1051719.828,13280.06,4043.63,-5189.75,10451.94,27634.0,-3080.56,4402.97,24873.78
1051719.832,13304.76,4184.77,-5130.82,10447.69,27922.2,-2779.77,5619.62,25072.67
1051719.836,13313.96,4246.76,-5104.54,10459.62,27708.34,-3073.07,5036.93,24793.68
1051719.84,13308.0,4135.75,-5152.56,10463.05,27322.82,-3456.5,3538.28,24539.28
1051719.844,13292.46,4072.24,-5170.16,10484.84,27547.65,-3207.83,4107.52,24709.7
1051719.848,13296.51,4174.95,-5119.61,10465.29,27885.49,-2896.21,5474.76,24880.84
1051719.852,13327.55,4258.2,-5085.85,10469.72,27792.22,-3011.7,5319.07,24816.56
1051719.856,13322.21,4171.61,-5120.95,10491.18,27384.09,-3371.95,3735.73,24672.65
1051719.86,13289.55,4049.44,-5187.18,10467.44,27496.91,-3262.23,3851.51,24728.4
1051719.864,13305.9,4163.31,-5136.92,10450.32,27862.7,-2914.0,5269.58,24900.01
1051719.868,13323.12,4258.44,-5101.01,10453.7,27863.7,-2934.55,5499.6,24888.47
1051719.872,13311.29,4176.66,-5146.17,10442.31,27459.29,-3333.09,3987.98,24684.77
1051719.876,13268.66,4044.72,-5190.18,10460.19,27446.85,-3314.26,3684.81,24703.46
1051719.88,13268.19,4119.68,-5155.42,10466.34,27830.22,-2933.84,5104.83,24906.73
1051719.884,13296.94,4249.76,-5101.01,10449.17,27931.46,-2863.74,5696.44,24939.35
1051719.888,13304.38,4201.79,-5132.49,10455.09,27537.25,-3254.22,4305.55,24728.44
1051719.8919,13289.93,4064.7,-5189.47,10472.59,27413.18,-3343.73,3564.98,24725.58
1051719.8959,13302.18,4115.68,-5149.89,10482.88,27767.66,-2996.02,4854.11,24874.45
1051719.8999,13332.99,4258.3,-5085.42,10474.25,27960.97,-2828.22,5737.07,24952.22
1051719.9039,13341.57,4241.66,-5092.19,10479.5,27604.06,-3141.26,4560.66,24848.37
1051719.9079,13309.53,4089.83,-5159.76,10482.65,27374.8,-3374.0,3488.02,24685.48
1051719.9119,13288.88,4089.98,-5165.58,10457.66,27712.4,-3045.85,4612.64,24851.8
1051719.9159,13297.99,4217.2,-5107.16,10448.12,27940.71,-2824.16,5687.86,24968.44
1051719.9199,13319.06,4251.67,-5096.48,10462.09,27661.14,-3094.01,4802.85,24835.26
1051719.9239,13298.32,4107.52,-5164.34,10459.57,27359.87,-3396.94,3500.94,24644.76
1051719.9279,13285.21,4067.33,-5189.94,10459.38,27629.76,-3133.2,4336.17,24768.78
1051719.9319,13305.33,4205.18,-5126.43,10450.75,27941.75,-2826.31,5610.28,24937.63
1051719.9359,13307.05,4246.38,-5116.03,10443.45,27748.54,-3031.44,5103.87,24807.6
1051719.9399,13302.76,4127.36,-5176.88,10448.17,27374.22,-3383.97,3607.94,24625.59
1051719.9439,13271.43,4036.71,-5214.07,10433.63,27552.85,-3186.13,4081.25,24737.89
1051719.9479,13297.37,4173.57,-5140.73,10446.65,27895.02,-2846.58,5455.73,24927.81
1051719.9519,13328.46,4273.51,-5082.18,10479.59,27835.66,-2914.86,5392.36,24906.3
1051719.9559,13305.0,4152.87,-5132.77,10449.7,27442.98,-3275.44,3855.37,24773.79
1051719.9599,13286.16,4045.87,-5197.1,10434.82,27536.82,-3187.18,3943.16,24788.43
1051719.9639,13284.78,4160.74,-5139.02,10459.33,27873.28,-2891.11,5316.31,24839.83
1051719.9679,13322.12,4273.37,-5076.5,10467.01,27883.49,-2880.05,5567.98,24863.2
1051719.9719,13336.04,4210.28,-5103.21,10464.96,27465.3,-3288.17,4021.36,24636.99
1051719.9759,13295.99,4063.08,-5179.07,10454.23,27435.5,-3291.8,3677.27,24661.73
1051719.9799,13297.37,4135.56,-5148.46,10449.55,27831.51,-2904.94,5101.97,24879.79
1051719.9839,13321.35,4261.92,-5093.24,10456.85,27960.16,-2794.08,5750.85,24944.98
1051719.9879,13295.8,4210.42,-5112.74,10464.0,27559.43,-3181.31,4357.53,24745.85
1051719.9919,13293.32,4076.86,-5184.46,10460.57,27393.82,-3366.09,3574.28,24545.86
1051719.9959,13317.44,4127.69,-5156.95,10452.08,27786.07,-3000.21,4896.74,24746.85
1051719.9999,13333.23,4256.44,-5077.79,10468.44,27968.27,-2816.63,5748.42,24865.58
1051720.0039,13319.92,4229.74,-5081.51,10492.71,27609.88,-3144.98,4574.92,24705.7
1051720.0079,13281.49,4069.81,-5159.19,10478.12,27375.99,-3366.33,3522.06,24579.62
1051720.0119,13269.71,4070.04,-5185.03,10438.63,27725.56,-3039.12,4649.12,24731.54
1051720.0159,13295.56,4204.75,-5132.77,10419.27,27988.63,-2775.48,5761.43,24900.25
1051720.0198,13281.73,4213.05,-5110.07,10437.87,27702.14,-3049.47,4922.82,24761.25
1051720.0238,13295.8,4112.82,-5145.65,10471.73,27384.28,-3332.71,3592.87,24611.76
1051720.0278,13294.36,4069.52,-5187.18,10443.02,27663.52,-3070.93,4394.91,24754.81
1051720.0318,13312.96,4204.23,-5133.01,10416.37,27962.5,-2763.99,5651.67,24943.97
1051720.0358,13345.67,4276.09,-5084.13,10453.61,27787.4,-2918.43,5202.2,24882.46
1051720.0398,13275.82,4125.79,-5161.1,10442.78,27386.38,-3347.49,3723.76,24535.23
1051720.0438,13255.55,4033.8,-5207.25,10417.61,27575.69,-3176.45,4182.58,24606.56
1051720.0478,13295.65,4162.41,-5144.74,10420.51,27930.26,-2780.63,5553.29,24915.27
1051720.0518,13315.35,4246.38,-5112.6,10422.71,27862.36,-2874.09,5499.03,24853.42
1051720.0558,13264.66,4129.36,-5178.6,10415.79,27454.0,-3275.68,3959.56,24632.27
1051720.0598,13254.21,4023.98,-5228.81,10413.98,27483.04,-3203.73,3915.64,24677.66
1051720.0638,13303.57,4157.16,-5145.36,10418.8,27840.9,-2879.62,5289.94,24783.52
1051720.0678,13348.1,4282.62,-5069.07,10461.95,27871.47,-2880.43,5610.75,24761.2
1051720.0718,13338.85,4202.65,-5092.29,10478.69,27470.88,-3243.3,4144.72,24618.68
1051720.0758,13281.2,4048.92,-5160.86,10478.16,27408.03,-3282.6,3710.08,24581.82
1051720.0798,13301.33,4134.27,-5130.63,10469.2,27782.4,-2932.12,5081.23,24743.08
1051720.0838,13339.38,4271.7,-5091.72,10451.51,27916.39,-2795.03,5730.53,24870.64
1051720.0878,13329.36,4222.06,-5113.13,10458.8,27540.88,-3153.42,4414.46,24709.51
1051720.0918,13294.89,4072.43,-5168.06,10484.55,27397.68,-3277.59,3647.04,24628.12
1051720.0958,13283.64,4088.45,-5181.22,10414.98,27748.45,-2931.74,4911.47,24801.69
1051720.0998,13309.91,4218.01,-5107.98,10417.18,27938.18,-2765.94,5785.18,24882.03
1051720.1038,13319.21,4234.27,-5094.96,10451.89,27630.05,-3096.2,4724.41,24701.84
1051720.1078,13293.79,4088.93,-5159.71,10451.51,27365.26,-3320.79,3598.4,24592.26
1051720.1118,13292.22,4081.44,-5166.77,10446.65,27690.32,-2982.86,4644.54,24791.43
1051720.1158,13327.55,4234.17,-5089.86,10451.75,27962.97,-2736.76,5783.13,24907.4
1051720.1198,13322.07,4252.72,-5079.6,10464.96,27733.33,-2961.83,5080.22,24830.15
1051720.1238,13283.3,4101.18,-5146.03,10461.52,27381.33,-3253.6,3681.95,24708.46
1051720.1278,13276.91,4056.98,-5180.22,10444.59,27610.21,-3025.06,4383.14,24778.27
1051720.1318,13316.59,4196.6,-5118.47,10442.83,27923.06,-2759.98,5659.96,24878.22
1051720.1358,13322.4,4244.33,-5102.59,10435.77,27780.82,-2913.71,5304.15,24822.29
1051720.1398,13284.11,4112.24,-5156.8,10440.02,27377.8,-3298.71,3790.24,24591.54
1051720.1438,13255.74,4020.02,-5196.91,10422.18,27517.85,-3123.33,4101.47,24689.15
1051720.1477,13276.44,4170.37,-5124.28,10435.68,27878.34,-2803.42,5465.03,24803.36
1051720.1517,13338.57,4277.85,-5078.32,10445.02,27827.17,-2883.48,5473.9,24771.36
1051720.1557,13315.58,4177.76,-5126.76,10438.63,27409.84,-3269.63,3934.91,24613.48
1051720.1597,13281.63,4058.36,-5184.17,10452.46,27449.61,-3217.6,3891.85,24595.55
1051720.1637,13295.94,4145.24,-5133.96,10456.23,27843.86,-2848.82,5325.41,24815.9
1051720.1677,13327.5,4254.77,-5096.25,10429.15,27922.06,-2795.17,5736.02,24883.65
1051720.1717,13255.98,4162.36,-5130.01,10425.85,27496.01,-3175.45,4239.61,24708.89
1051720.1757,13241.44,4025.03,-5184.98,10438.78,27413.09,-3236.25,3734.73,24640.66
1051720.1797,13337.8,4163.22,-5112.22,10482.12,27811.34,-2868.22,5131.2,24836.73
1051720.1837,13361.98,4296.97,-5052.38,10474.87,27955.96,-2728.8,5812.93,24944.17
1051720.1877,13328.03,4204.23,-5098.87,10437.11,27563.1,-3099.2,4483.18,24763.54
1051720.1917,13323.26,4066.28,-5175.54,10425.47,27385.91,-3280.88,3668.69,24594.21
1051720.1957,13345.0,4127.41,-5133.15,10456.94,27756.74,-2926.45,4914.24,24787.57
1051720.1997,13371.52,4295.06,-5067.73,10455.09,27949.96,-2734.18,5800.44,24914.36
1051720.2037,13367.13,4288.82,-5064.06,10458.57,27627.66,-3047.23,4759.36,24764.25
1051720.2077,13331.46,4134.8,-5144.55,10433.58,27371.55,-3300.38,3645.8,24597.46
1051720.2117,13333.23,4115.96,-5151.61,10429.34,27689.51,-3005.5,4674.48,24724.1
1051720.2157,13384.34,4274.32,-5055.48,10451.22,27956.44,-2744.87,5807.02,24880.84
1051720.2197,13376.62,4285.48,-5047.08,10459.95,27714.64,-2961.87,5094.72,24812.7
1051720.2237,13312.29,4123.88,-5122.52,10450.41,27383.81,-3254.08,3685.76,24683.81
1051720.2277,13330.99,4112.43,-5130.01,10458.52,27615.31,-3048.85,4369.93,24721.05
1051720.2317,13373.52,4258.78,-5053.38,10456.13,27940.56,-2754.97,5684.09,24878.08
1051720.2357,13372.57,4298.83,-5039.26,10455.23,27778.49,-2914.48,5311.87,24810.79
1051720.2397,13354.78,4175.9,-5100.63,10456.99,27390.15,-3278.3,3796.2,24618.53
1051720.2437,13327.5,4075.48,-5151.94,10437.82,27555.04,-3072.93,4149.58,24805.26
1051720.2477,13343.05,4188.11,-5108.55,10411.17,27909.76,-2748.68,5510.57,24940.3
1051720.2517,13363.89,4284.81,-5058.0,10431.53,27873.42,-2813.86,5557.78,24873.5
1051720.2557,13342.86,4177.62,-5112.27,10418.94,27468.4,-3218.27,4056.5,24662.45
1051720.2597,13316.2,4059.03,-5174.78,10420.42,27480.41,-3174.35,3919.17,24663.83
1051720.2637,13327.03,4149.34,-5141.35,10395.67,27864.03,-2814.01,5318.93,24866.25
1051720.2677,13360.88,4268.36,-5093.05,10384.75,27925.73,-2770.61,5725.81,24896.72
1051720.2717,13341.52,4207.75,-5094.15,10431.43,27505.97,-3152.28,4235.98,24720.62
1051720.2756,13323.02,4065.66,-5156.85,10446.93,27449.04,-3168.3,3767.73,24749.0
1051720.2796,13312.29,4115.39,-5137.11,10436.92,27827.55,-2810.62,5119.23,24930.24
1051720.2836,13330.46,4235.7,-5080.18,10400.58,27955.73,-2697.09,5805.06,24975.68
1051720.2876,13324.93,4201.08,-5100.35,10400.3,27575.93,-3111.22,4525.28,24690.11
1051720.2916,13298.85,4061.65,-5166.05,10408.78,27401.45,-3283.98,3676.89,24541.19
1051720.2956,13316.06,4096.89,-5167.44,10382.03,27753.02,-2935.46,4873.18,24719.62
1051720.2996,13355.21,4248.52,-5090.62,10406.69,27976.37,-2727.32,5798.96,24861.39
1051720.3036,13359.98,4247.76,-5085.04,10416.32,27662.09,-3000.55,4792.26,24764.35
1051720.3076,13339.9,4107.86,-5159.47,10422.56,27386.19,-3253.17,3632.26,24611.05
1051720.3116,13325.88,4089.64,-5158.62,10415.75,27708.72,-2942.09,4657.36,24770.45
1051720.3156,13336.8,4222.73,-5104.59,10413.03,27977.76,-2688.46,5798.87,24908.59
1051720.3196,13363.22,4254.63,-5096.91,10410.64,27734.95,-2906.04,5117.04,24812.42
1051720.3236,13338.71,4137.47,-5153.13,10416.6,27405.27,-3201.68,3753.76,24680.24
1051720.3276,13317.54,4081.87,-5183.51,10419.32,27617.46,-3001.31,4380.7,24729.54
1051720.3316,13352.3,4211.81,-5109.22,10414.32,27947.14,-2680.73,5708.5,24914.98
1051720.3356,13337.14,4241.99,-5073.4,10416.75,27821.64,-2816.77,5437.66,24846.6
1051720.3396,13308.86,4145.24,-5119.09,10421.33,27436.55,-3161.62,3941.2,24673.99
1051720.3436,13337.04,4076.2,-5176.74,10414.27,27567.1,-3018.09,4169.75,24779.04
1051720.3476,13358.17,4201.32,-5113.55,10428.33,27930.17,-2653.79,5566.12,25003.72
1051720.3516,13373.81,4289.39,-5076.22,10431.0,27880.2,-2766.28,5636.12,24834.45
1051720.3556,13339.76,4180.29,-5128.34,10421.56,27464.97,-3161.38,4115.53,24630.98
1051720.3596,13307.53,4048.11,-5202.01,10391.19,27497.39,-3078.75,3987.5,24735.12
1051720.3636,13319.64,4139.23,-5171.39,10376.5,27862.93,-2740.24,5376.48,24884.85
1051720.3676,13338.23,4249.91,-5114.13,10393.48,27913.05,-2697.94,5783.94,24887.71
1051720.3716,13327.79,4189.78,-5118.47,10402.92,27491.72,-3100.25,4330.68,24653.25
1051720.3756,13286.26,4022.36,-5219.51,10360.77,27406.89,-3200.01,3809.07,24553.78
1051720.3796,13304.62,4091.22,-5161.62,10393.29,27790.93,-2811.1,5152.89,24803.07
1051720.3836,13348.72,4273.84,-5066.92,10431.62,27944.28,-2649.69,5883.12,24926.38
1051720.3876,13392.83,4282.0,-5064.44,10463.62,27563.34,-3058.86,4617.64,24603.04
1051720.3916,13371.28,4135.47,-5138.97,10448.6,27385.91,-3200.44,3730.11,24534.8
1051720.3956,13339.57,4125.98,-5156.9,10416.32,27749.83,-2836.75,4961.49,24772.98
1051720.3996,13356.31,4255.68,-5096.05,10404.02,27987.63,-2637.15,5956.08,24857.95
1051720.4036,13343.38,4250.96,-5095.34,10408.78,27697.23,-2899.5,5005.74,24772.6
1051720.4076,13342.33,4106.95,-5174.26,10409.55,27377.08,-3175.45,3700.88,24624.54
1051720.4116,13329.75,4085.49,-5178.98,10405.11,27683.55,-2893.07,4668.28,24718.62
1051720.4156,13355.69,4235.94,-5090.33,10425.24,27959.87,-2639.68,5822.71,24838.26
1051720.4196,13379.24,4279.61,-5064.3,10438.73,27745.2,-2845.14,5207.92,24765.64
1051720.4236,13341.0,4131.37,-5136.59,10426.9,27392.44,-3159.0,3810.12,24636.94
1051720.4276,13306.29,4048.54,-5185.32,10394.38,27628.95,-2940.32,4466.39,24737.31
1051720.4316,13329.51,4175.09,-5151.99,10360.62,27950.48,-2675.1,5774.36,24798.78
1051720.4356,13314.92,4217.2,-5137.63,10365.82,27790.65,-2808.43,5449.49,24748.95
1051720.4396,13280.01,4119.11,-5142.4,10397.53,27397.92,-3132.96,3924.99,24644.62
1051720.4436,13306.67,4058.55,-5173.83,10413.84,27515.27,-3002.98,4168.03,24682.19
1051720.4476,13352.54,4193.97,-5120.56,10404.87,27898.51,-2670.19,5575.37,24839.83
1051720.4516,13389.59,4283.52,-5077.98,10428.62,27891.11,-2680.49,5712.18,24869.35
1051720.4556,13358.45,4189.59,-5109.74,10434.2,27481.89,-3049.47,4202.7,24704.6
1051720.4596,13333.51,4059.12,-5176.45,10400.63,27500.3,-3009.46,4018.69,24730.92
1051720.4636,13333.18,4154.87,-5127.24,10405.26,27863.84,-2684.4,5371.57,24841.5
1051720.4675,13383.82,4303.89,-5055.62,10437.39,27935.94,-2620.65,5836.54,24867.01
1051720.4715,13377.43,4247.86,-5081.46,10446.6,27530.58,-3003.65,4445.98,24676.52
1051720.4755,13347.06,4092.17,-5161.72,10431.24,27444.18,-3092.58,3883.65,24610.47
1051720.4795,13354.02,4145.34,-5137.63,10408.36,27817.44,-2741.77,5185.8,24766.92
1051720.4835,13372.23,4269.6,-5080.41,10400.25,27961.69,-2589.85,5912.16,24868.92
1051720.4875,13370.42,4241.37,-5096.25,10403.54,27607.97,-2901.17,4701.28,24770.79
1051720.4915,13336.47,4088.69,-5168.49,10408.93,27393.77,-3123.57,3769.64,24599.75
1051720.4955,13335.61,4098.13,-5157.71,10401.68,27744.82,-2793.65,4939.84,24746.9
1051720.4995,13371.99,4250.34,-5076.12,10414.41,27974.7,-2561.62,5917.84,24914.08
1051720.5035,13376.62,4272.13,-5077.41,10415.6,27672.25,-2885.29,4974.51,24700.74
1051720.5075,13352.68,4117.92,-5149.65,10397.67,27383.43,-3159.0,3781.03,24538.66
1051720.5115,13325.88,4077.96,-5168.1,10388.09,27673.44,-2849.77,4667.43,24733.83
1051720.5155,13354.54,4225.35,-5093.53,10397.39,27965.22,-2583.22,5835.34,24874.12
1051720.5195,13365.51,4269.65,-5084.32,10407.16,27761.18,-2790.4,5269.34,24775.65
1051720.5235,13346.96,4146.29,-5135.82,10429.0,27420.81,-3098.54,3870.96,24636.46
1051720.5275,13352.63,4080.44,-5163.57,10426.57,27645.11,-2865.46,4463.82,24760.44
1051720.5315,13364.89,4202.32,-5100.06,10418.85,27961.73,-2571.77,5755.57,24895.15
1051720.5355,13380.2,4267.41,-5067.87,10425.28,27840.09,-2698.37,5546.95,24821.05
1051720.5395,13367.23,4173.76,-5114.03,10433.63,27444.08,-3067.35,4018.45,24628.69
1051720.5435,13357.59,4094.08,-5140.64,10448.89,27568.3,-2920.91,4196.17,24726.11
1051720.5475,13379.24,4214.29,-5089.57,10427.19,27948.76,-2555.7,5614.9,24967.86
1051720.5515,13392.88,4298.26,-5071.02,10407.45,27902.7,-2616.45,5738.16,24880.46
1051720.5555,13390.49,4219.48,-5109.45,10416.94,27499.87,-2993.68,4262.3,24683.86
1051720.5595,13358.07,4095.75,-5151.22,10422.61,27550.13,-2921.68,4096.08,24781.52
1051720.5635,13348.15,4159.74,-5116.18,10422.33,27880.34,-2620.75,5392.46,24853.52
1051720.5675,13366.89,4264.45,-5081.7,10402.82,27955.25,-2552.41,5883.46,24896.82
1051720.5715,13360.6,4218.01,-5103.73,10403.44,27549.17,-2947.04,4475.74,24692.59
1051720.5755,13347.2,4083.2,-5143.69,10436.11,27416.28,-3101.73,3839.64,24508.19
1051720.5795,13348.01,4120.78,-5128.19,10425.9,27776.1,-2731.13,5103.97,24731.35
1051720.5835,13350.54,4251.05,-5080.65,10398.25,27944.62,-2570.25,5897.81,24846.51
1051720.5875,13363.65,4221.96,-5090.76,10402.25,27601.87,-2890.68,4741.05,24707.56
1051720.5915,13322.55,4080.82,-5150.99,10412.07,27388.24,-3084.28,3785.56,24606.85
1051720.5954,13330.41,4107.52,-5151.37,10390.81,27732.28,-2758.26,4922.34,24736.84
1051720.5994,13372.61,4259.68,-5084.18,10382.42,27979.95,-2537.54,5953.69,24858.67
1051720.6034,13403.61,4285.48,-5073.93,10405.68,27692.66,-2824.59,5079.46,24711.09
1051720.6074,13371.76,4138.85,-5128.72,10438.73,27386.1,-3092.48,3825.09,24586.16
1051720.6114,13323.83,4086.78,-5156.8,10414.41,27669.96,-2806.19,4718.83,24720.58
1051720.6154,13364.13,4230.55,-5083.66,10412.31,27962.12,-2543.64,5889.61,24861.43
1051720.6194,13418.2,4301.45,-5047.42,10431.48,27790.84,-2716.83,5405.95,24817.9
1051720.6234,13388.92,4158.16,-5113.79,10412.5,27442.12,-3036.4,4009.63,24681.33
1051720.6274,13349.06,4080.2,-5154.9,10380.89,27611.4,-2814.25,4458.38,24852.42
1051720.6314,13413.81,4245.19,-5081.51,10393.29,27960.26,-2479.46,5791.04,25041.96
1051720.6354,13444.85,4314.61,-5062.96,10383.08,27830.08,-2685.93,5607.46,24771.65
1051720.6394,13422.97,4199.46,-5106.07,10374.83,27398.21,-3086.42,4035.38,24566.7
1051720.6434,13421.73,4098.75,-5163.19,10355.43,27502.97,-2956.44,4179.53,24655.49
1051720.6474,13411.95,4188.59,-5132.63,10317.99,27872.33,-2636.62,5585.15,24780.71
1051720.6514,13430.6,4285.15,-5102.68,10298.06,27875.81,-2623.61,5794.34,24826.24
1051720.6554,13458.11,4193.12,-5147.79,10291.72,27450.18,-3040.12,4262.97,24572.57
1051720.6594,13441.47,4070.09,-5207.01,10285.57,27436.88,-3032.3,3986.88,24575.52
1051720.6634,13440.94,4139.76,-5184.56,10260.15,27801.9,-2692.32,5352.93,24729.54
1051720.6674,13445.52,4241.28,-5143.31,10243.46,27907.04,-2600.86,5903.63,24786.81
1051720.6714,13448.43,4198.41,-5154.28,10261.01,27509.5,-2958.54,4530.95,24622.59
1051720.6754,13415.77,4059.22,-5221.65,10241.41,27404.93,-3063.97,3874.64,24553.06
1051720.6794,13417.39,4113.63,-5192.38,10231.93,27789.83,-2699.57,5178.36,24744.04
1051720.6834,13442.37,4242.23,-5125.19,10264.06,27975.8,-2515.84,6021.17,24868.3
1051720.6874,13458.87,4226.16,-5126.48,10286.62,27624.18,-2870.61,4878.57,24682.81
1051720.6914,13442.8,4084.25,-5195.81,10282.28,27398.54,-3059.48,3872.3,24596.55
1051720.6954,13441.99,4101.9,-5192.95,10273.55,27717.21,-2752.4,4942.56,24727.01
1051720.6994,13462.59,4236.75,-5139.64,10245.04,27946.19,-2539.97,5957.27,24842.17
1051720.7034,13450.05,4234.17,-5152.32,10236.55,27666.81,-2811.62,5102.49,24715.76
1051720.7074,13425.88,4098.23,-5205.92,10255.39,27375.18,-3088.76,3862.52,24556.88
1051720.7114,13406.56,4047.63,-5226.42,10247.37,27669.39,-2787.11,4727.98,24735.41
1051720.7154,13423.59,4180.62,-5161.57,10244.28,27972.56,-2485.7,5930.85,24945.6
1051720.7194,13447.86,4237.46,-5146.17,10238.17,27791.79,-2695.32,5436.9,24794.25
1051720.7233,13436.03,4119.3,-5195.0,10245.04,27397.59,-3057.81,3960.66,24563.12
1051720.7273,13412.05,4048.82,-5225.09,10246.9,27597.1,-2850.25,4446.17,24679.85
1051720.7313,13426.97,4169.04,-5171.25,10243.32,27940.94,-2527.81,5749.75,24864.25
1051720.7353,13454.53,4251.81,-5133.01,10245.32,27867.37,-2597.9,5657.63,24862.48
1051720.7393,13451.1,4155.59,-5174.16,10252.19,27460.96,-2988.29,4169.61,24631.26
1051720.7433,13417.39,4038.86,-5242.16,10233.5,27538.45,-2920.72,4255.3,24624.21
1051720.7473,13425.45,4144.67,-5186.42,10229.97,27902.84,-2575.49,5620.77,24799.83
1051720.7513,13449.43,4258.3,-5123.23,10251.71,27902.18,-2570.68,5842.4,24816.33
1051720.7553,13457.54,4187.01,-5156.71,10266.21,27478.75,-2943.95,4344.27,24663.88
1051720.7593,13420.01,4051.73,-5228.33,10239.75,27458.72,-2972.98,4032.09,24604.56
1051720.7633,13417.25,4114.63,-5207.4,10224.53,27862.31,-2613.5,5449.82,24765.69
1051720.7673,13431.6,4219.68,-5172.35,10203.27,27973.56,-2500.3,6039.19,24877.36
1051720.7713,13436.61,4178.05,-5184.7,10224.39,27559.95,-2872.32,4614.02,24721.48
1051720.7753,13401.22,4026.32,-5240.25,10224.63,27394.11,-3036.45,3846.46,24572.28
1051720.7793,13423.73,4103.09,-5195.57,10229.68,27777.39,-2692.41,5148.22,24703.08
1051720.7833,13462.35,4258.16,-5127.19,10250.52,27954.68,-2544.88,5996.18,24757.34
1051720.7873,13461.69,4236.32,-5127.29,10268.02,27625.52,-2827.55,4886.25,24695.78
1051720.7913,13425.02,4080.11,-5207.92,10244.42,27392.39,-3046.8,3860.28,24567.56
1051720.7953,13420.58,4074.19,-5212.83,10232.07,27727.8,-2722.41,4957.25,24726.39
1051720.7993,13438.56,4209.28,-5160.62,10215.09,27971.46,-2471.49,6009.48,24890.09
1051720.8033,13438.94,4236.41,-5169.34,10213.57,27696.42,-2755.02,5188.99,24720.24
1051720.8073,13427.31,4107.67,-5234.34,10217.62,27398.07,-3041.32,3915.45,24572.76
1051720.8113,13405.94,4053.59,-5247.4,10193.68,27661.28,-2779.58,4729.08,24705.56
1051720.8153,13419.53,4180.77,-5168.63,10210.37,27972.94,-2472.45,5951.74,24906.21
1051720.8193,13466.79,4261.73,-5120.9,10257.39,27832.03,-2588.7,5552.01,24914.7
1051720.8233,13455.73,4147.53,-5167.44,10283.14,27447.99,-2932.74,4100.28,24739.36
1051720.8273,13417.91,4045.58,-5233.1,10252.38,27592.23,-2844.43,4492.95,24655.92
1051720.8313,13435.51,4162.6,-5191.28,10211.66,27923.59,-2545.36,5795.53,24799.25
1051720.8353,13458.87,4251.91,-5146.84,10221.91,27829.94,-2604.25,5671.31,24815.85
1051720.8393,13433.65,4147.86,-5189.9,10229.21,27433.21,-2995.4,4179.29,24576.14
1051720.8433,13405.32,4038.14,-5246.35,10228.92,27513.46,-2916.24,4236.89,24599.94
1051720.8473,13433.36,4152.44,-5177.31,10241.27,27882.05,-2550.22,5583.33,24802.16
1051720.8512,13439.23,4243.33,-5150.84,10226.63,27883.91,-2590.04,5854.08,24716.52
1051720.8552,13427.5,4164.74,-5191.47,10222.82,27489.28,-2950.48,4411.89,24587.82
1051720.8592,13400.13,4024.17,-5263.81,10205.46,27465.97,-2948.95,4067.04,24625.26
1051720.8632,13418.29,4110.24,-5222.85,10210.47,27839.76,-2599.43,5394.65,24779.28
1051720.8672,13443.85,4237.94,-5156.95,10210.42,27950.0,-2503.59,6004.76,24825.81
1051720.8712,13441.85,4186.68,-5179.5,10200.41,27564.96,-2869.46,4684.59,24658.16
1051720.8752,13417.2,4043.96,-5246.83,10205.65,27423.48,-3003.26,3957.51,24553.21
1051720.8792,13405.52,4074.14,-5243.83,10199.26,27791.12,-2628.76,5193.28,24773.08
1051720.8832,13441.37,4212.81,-5184.03,10190.15,27982.48,-2456.28,6076.24,24861.48
1051720.8872,13457.49,4213.05,-5189.04,10207.08,27643.02,-2783.39,4995.16,24706.89
1051720.8912,13421.68,4059.12,-5239.63,10219.34,27390.77,-2967.98,3929.81,24659.4
1051720.8952,13402.89,4058.31,-5244.78,10202.84,27741.77,-2655.55,4981.66,24790.48
1051720.8992,13428.83,4203.94,-5187.66,10186.34,27992.3,-2461.53,6068.71,24826.29
1051720.9032,13448.34,4224.97,-5174.35,10172.56,27737.81,-2698.52,5308.68,24735.6
1051720.9072,13424.97,4095.7,-5231.91,10197.5,27399.69,-3003.12,4005.43,24571.61
1051720.9112,13426.73,4076.29,-5233.24,10239.17,27672.58,-2715.44,4782.68,24757.58
1051720.9152,13463.69,4220.44,-5159.81,10236.03,27990.34,-2383.14,6012.68,25014.31
1051720.9192,13461.26,4254.15,-5153.47,10219.77,27842.52,-2551.27,5648.8,24917.13
1051720.9232,13417.01,4108.0,-5219.17,10214.71,27429.39,-2984.33,4151.11,24570.85
1051720.9272,13374.85,4007.05,-5271.29,10200.79,27574.26,-2869.89,4530.34,24580.96
1051720.9312,13392.97,4124.4,-5226.66,10181.71,27907.09,-2562.9,5841.45,24730.4
1051720.9352,13430.88,4226.26,-5174.21,10191.11,27829.7,-2594.61,5750.04,24797.39
1051720.9392,13419.25,4128.7,-5215.26,10194.64,27417.42,-2965.5,4228.88,24612.24
1051720.9432,13408.81,4020.26,-5279.49,10180.62,27493.19,-2885.29,4261.54,24652.25
1051720.9472,13409.19,4110.67,-5246.54,10149.05,27862.46,-2545.36,5610.42,24815.75
1051720.9512,13426.88,4227.02,-5175.78,10190.58,27911.81,-2494.62,5947.3,24889.19
1051720.9552,13410.0,4140.62,-5214.88,10189.77,27499.63,-2887.87,4508.16,24683.57
1051720.9592,13375.28,3993.8,-5282.83,10174.94,27443.17,-2942.9,4096.89,24607.71
1051720.9632,13377.0,4061.03,-5258.7,10172.08,27819.35,-2596.28,5452.2,24764.45
1051720.9672,13408.85,4192.16,-5201.63,10176.14,27951.43,-2478.31,6105.38,24844.03
1051720.9712,13392.55,4151.06,-5209.68,10180.9,27586.03,-2822.21,4827.4,24699.36
1051720.9752,13354.83,3997.04,-5285.41,10166.46,27420.09,-2954.1,4031.37,24637.27
1051720.9791,13373.42,4036.28,-5268.62,10172.99,27784.64,-2599.38,5260.9,24812.37
1051720.9831,13405.09,4174.61,-5202.77,10171.99,27981.86,-2412.61,6164.84,24921.23
1051720.9871,13426.11,4190.59,-5189.04,10188.96,27665.19,-2708.01,5131.48,24789.96
1051720.9911,13401.94,4046.73,-5263.81,10189.96,27426.87,-2939.8,4075.96,24657.35
1051720.9951,13377.33,4021.36,-5282.02,10167.79,27744.01,-2652.6,5106.4,24761.2
1051720.9991,13387.11,4165.32,-5223.61,10158.59,27968.22,-2440.31,6118.68,24842.46
1051721.0031,13433.93,4207.18,-5204.06,10183.24,27698.19,-2702.95,5355.17,24706.08
1051721.0071,13415.96,4065.32,-5249.79,10177.8,27394.15,-2980.9,4067.42,24588.64
1051721.0111,13396.88,4011.3,-5278.16,10169.79,27640.25,-2708.77,4763.94,24743.99
1051721.0151,13415.86,4153.63,-5206.82,10173.61,27942.47,-2437.54,5985.69,24868.78
1051721.0191,13423.35,4213.43,-5190.95,10179.28,27817.82,-2572.63,5695.68,24819.71
1051721.0231,13394.6,4088.07,-5245.21,10179.85,27455.71,-2929.74,4272.46,24615.43
1051721.0271,13400.75,4006.0,-5280.11,10173.85,27586.89,-2761.27,4556.89,24734.07
1051721.0311,13426.26,4139.42,-5217.41,10169.08,27902.8,-2445.17,5810.4,24891.81
1051721.0351,13443.28,4234.98,-5185.41,10168.12,27857.64,-2545.6,5840.83,24764.02
1051721.0391,13417.72,4128.93,-5220.13,10186.96,27443.84,-2929.88,4355.86,24578.19
1051721.0431,13379.81,3997.04,-5286.31,10181.81,27492.91,-2856.45,4309.37,24622.49
1051721.0471,13401.89,4103.8,-5225.8,10190.82,27877.43,-2504.21,5665.11,24789.19
1051721.0511,13435.89,4223.54,-5162.91,10198.88,27927.93,-2453.18,6010.96,24835.83
1051721.0551,13409.38,4150.15,-5198.1,10203.79,27511.27,-2840.71,4596.19,24636.51
1051721.0591,13378.57,4006.15,-5285.55,10184.67,27454.19,-2862.31,4189.63,24654.01
1051721.0631,13392.74,4070.66,-5255.75,10162.26,27816.73,-2548.08,5457.07,24761.01
1051721.0671,13421.49,4190.73,-5187.23,10174.04,27963.31,-2435.16,6121.92,24804.69
1051721.0711,13369.08,4118.63,-5203.34,10180.9,27591.37,-2772.52,4877.62,24670.99
1051721.0751,13331.56,3972.34,-5288.32,10140.32,27426.77,-2899.17,4108.05,24639.94
1051721.0791,13406.23,4062.22,-5270.91,10172.99,27786.88,-2557.56,5287.7,24807.03
1051721.0831,13467.17,4234.36,-5175.59,10209.99,28001.45,-2371.22,6196.64,24903.3
1051721.0871,13473.89,4237.89,-5168.34,10213.81,27674.44,-2676.68,5184.94,24771.12
1051721.0911,13430.02,4071.14,-5248.74,10198.69,27395.16,-2956.15,4093.74,24551.92
1051721.0951,13400.84,4035.23,-5280.5,10169.55,27689.75,-2666.57,5037.02,24675.13
1051721.0991,13414.19,4181.77,-5214.74,10170.37,27945.09,-2411.46,6085.02,24835.35
1051721.1031,13430.55,4216.15,-5192.38,10181.57,27716.5,-2633.76,5387.35,24748.85
1051721.107,13418.87,4081.77,-5235.34,10201.12,27396.01,-2953.1,4105.0,24558.55
1051721.111,13403.8,4026.46,-5261.37,10189.06,27633.77,-2704.0,4784.49,24696.31
1051721.115,13445.33,4171.37,-5190.95,10189.06,27967.55,-2368.93,6003.29,24937.49
1051721.119,13456.54,4226.16,-5162.76,10197.45,27833.99,-2480.7,5664.3,24941.92
1051721.123,13425.83,4101.56,-5223.42,10196.5,27431.4,-2885.29,4228.97,24666.55
1051721.127,13411.48,4017.4,-5271.39,10193.54,27562.05,-2768.71,4535.01,24647.33
1051721.131,13427.16,4138.52,-5209.3,10188.58,27916.01,-2454.09,5822.09,24789.91
1051721.135,13452.53,4230.83,-5182.79,10170.99,27881.15,-2505.64,5861.66,24768.83
1051721.139,13447.24,4138.9,-5220.94,10176.99,27484.8,-2866.51,4439.64,24623.78
1051721.143,13406.85,4004.43,-5283.88,10175.52,27502.11,-2831.51,4340.74,24644.28
1051721.147,13411.24,4108.67,-5230.76,10175.8,27864.51,-2493.19,5634.83,24797.78
1051721.151,13435.99,4215.53,-5191.76,10166.55,27939.61,-2435.16,6024.5,24853.18
1051721.155,13441.47,4155.92,-5219.32,10176.61,27543.83,-2827.26,4677.77,24628.69
1051721.159,13418.68,4022.17,-5279.45,10184.58,27460.86,-2877.05,4186.3,24611.52
1051721.163,13416.24,4072.95,-5256.84,10168.65,27851.16,-2496.29,5491.35,24838.36
1051721.167,13432.89,4191.78,-5207.87,10159.4,27970.89,-2366.88,6142.43,24907.31
1051721.1709,13444.47,4187.73,-5208.83,10170.94,27605.97,-2718.4,4916.53,24722.25
1051721.1749,13429.07,4057.07,-5266.05,10175.52,27426.1,-2877.43,4078.58,24647.19
1051721.1789,13434.32,4082.63,-5244.26,10178.85,27753.98,-2556.75,5205.3,24774.03
1051721.1829,13466.36,4230.98,-5159.19,10193.35,27979.14,-2344.99,6128.98,24895.62
1051721.1869,13477.47,4230.21,-5155.75,10198.02,27677.01,-2625.99,5178.4,24787.14
1051721.1909,13436.46,4073.81,-5229.76,10201.88,27407.22,-2880.53,4070.23,24630.41
1051721.1949,13418.82,4057.31,-5248.5,10199.31,27729.42,-2570.82,5043.89,24798.97
1051721.1989,13456.25,4198.36,-5183.94,10194.97,28025.92,-2287.1,6188.2,24997.62
1051721.2029,13466.84,4226.3,-5176.31,10187.67,27797.42,-2503.68,5544.47,24931.2
1051721.2069,13444.0,4095.08,-5228.09,10195.35,27407.46,-2854.11,4120.45,24710.37
1051721.2109,13395.31,4012.44,-5271.44,10168.98,27600.2,-2686.93,4707.58,24685.39
1051721.2149,13394.45,4125.12,-5229.47,10152.01,27923.63,-2413.61,5961.09,24807.31
1051721.2189,13453.96,4235.13,-5181.12,10172.32,27809.43,-2524.66,5712.08,24782.95
1051721.2229,13451.24,4131.65,-5227.38,10189.92,27428.39,-2895.64,4284.86,24573.19
1051721.2269,13428.93,4026.32,-5286.98,10186.53,27535.39,-2769.42,4464.05,24618.25
1051721.2309,13446.52,4148.39,-5213.4,10191.06,27897.5,-2417.66,5794.1,24817.85
1051721.2349,13459.4,4243.28,-5173.83,10187.25,27893.64,-2454.0,5943.73,24790.34
1051721.2389,13430.26,4139.95,-5209.73,10173.51,27478.7,-2837.23,4447.7,24611.48
1051721.2429,13408.71,4029.37,-5264.95,10159.92,27491.0,-2792.36,4287.62,24638.37
1051721.2469,13432.55,4119.3,-5221.89,10170.7,27878.19,-2429.53,5645.18,24826.34
1051721.2509,13453.34,4233.89,-5169.87,10181.76,27946.14,-2373.27,6082.44,24873.45
1051721.2549,13448.29,4173.61,-5197.95,10181.71,27538.21,-2754.97,4694.99,24680.38
1051721.2589,13423.11,4038.1,-5256.94,10185.91,27458.0,-2813.1,4171.09,24655.87
1051721.2629,13423.73,4087.83,-5239.77,10174.9,27832.32,-2451.28,5456.59,24848.61
1051721.2669,13461.64,4218.48,-5176.02,10181.24,27987.67,-2318.24,6193.83,24922.76
1051721.2709,13450.72,4195.4,-5176.02,10201.17,27628.23,-2649.12,4995.63,24782.23
1051721.2749,13425.73,4053.4,-5238.01,10194.16,27431.11,-2814.39,4095.84,24683.29
1051721.2789,13416.2,4066.85,-5248.74,10175.66,27763.04,-2521.47,5229.86,24776.6
1051721.2829,13469.36,4214.81,-5197.86,10156.92,27975.75,-2345.28,6214.91,24846.94
1051721.2869,13496.21,4244.33,-5173.73,10199.21,27705.15,-2599.1,5299.24,24770.64
1051721.2909,13451.67,4090.69,-5241.73,10193.54,27446.18,-2825.64,4175.85,24704.84
1051721.2949,13415.86,4037.29,-5282.02,10156.82,27685.79,-2621.56,4997.54,24668.46
1051721.2988,13437.18,4163.46,-5221.51,10148.38,27941.61,-2366.59,6051.49,24808.84
1051721.3028,13425.92,4186.34,-5199.39,10166.5,27740.72,-2544.69,5486.92,24760.15
1051721.3068,13367.37,4046.77,-5266.48,10157.3,27395.78,-2891.02,4147.2,24541.43
1051721.3108,13385.11,4007.05,-5299.9,10144.33,27631.95,-2642.01,4749.11,24697.12
1051721.3148,13429.83,4162.69,-5227.57,10148.72,27924.59,-2368.74,5962.75,24800.49
1051721.3188,13469.32,4243.52,-5171.16,10179.19,27806.76,-2502.01,5733.11,24728.78
1051721.3228,13438.27,4120.54,-5218.65,10187.44,27424.96,-2846.38,4299.83,24584.82
1051721.3268,13413.81,4013.68,-5284.88,10156.11,27558.04,-2702.52,4558.85,24689.96
1051721.3308,13436.94,4133.75,-5223.37,10164.21,27923.68,-2353.24,5887.56,24875.07
1051721.3348,13446.52,4224.3,-5185.75,10160.92,27882.05,-2398.49,5980.64,24842.6
1051721.3388,13439.66,4139.33,-5224.28,10167.03,27469.54,-2786.92,4537.11,24649.81
1051721.3428,13427.45,4022.31,-5279.4,10164.79,27499.82,-2724.12,4387.62,24733.64
1051721.3468,13435.75,4111.24,-5231.09,10166.6,27873.71,-2353.62,5705.12,24958.14
1051721.3508,13456.73,4224.83,-5180.07,10173.23,27933.27,-2337.17,6124.83,24922.47
1051721.3548,13455.54,4175.66,-5203.06,10178.52,27537.25,-2729.99,4791.12,24694.06
1051721.3588,13423.59,4034.23,-5273.25,10166.79,27434.3,-2833.18,4249.29,24597.22
1051721.3628,13427.16,4082.49,-5251.46,10158.44,27821.5,-2455.95,5533.03,24839.79
1051721.3668,13446.67,4205.28,-5186.61,10164.55,27983.48,-2284.72,6240.94,24982.12
1051721.3708,13428.59,4155.35,-5217.89,10146.05,27581.31,-2659.85,5032.54,24742.84
1051721.3748,13401.18,4025.7,-5290.7,10140.9,27383.9,-2883.43,4126.69,24565.6
1051721.3788,13417.05,4057.55,-5274.3,10143.57,27745.06,-2537.25,5263.62,24758.15
1051721.3828,13442.76,4192.16,-5210.73,10141.09,27944.66,-2323.48,6181.57,24889.14
1051721.3868,13459.97,4217.82,-5189.99,10163.45,27672.34,-2579.31,5316.45,24782.33
1051721.3908,13436.99,4084.11,-5245.78,10169.41,27382.42,-2843.95,4131.13,24636.08
1051721.3948,13423.64,4044.25,-5279.4,10145.24,27656.22,-2598.1,4973.22,24725.25
1051721.3988,13458.3,4193.4,-5198.57,10156.73,27962.97,-2311.42,6154.2,24880.03
1051721.4028,13457.73,4232.74,-5175.88,10170.27,27785.16,-2476.64,5640.89,24844.6
1051721.4068,13425.88,4093.5,-5251.5,10166.17,27410.65,-2831.79,4248.43,24637.18
1051721.4108,13410.0,4023.89,-5303.24,10133.94,27595.24,-2658.08,4759.17,24676.61
1051721.4148,13417.63,4148.72,-5222.94,10128.55,27933.79,-2339.98,6044.91,24841.55
1051721.4188,13454.63,4231.12,-5174.16,10151.34,27854.97,-2439.17,5899.24,24809.41
1051721.4228,13471.03,4143.76,-5200.72,10201.17,27453.04,-2803.61,4431.87,24637.99
1051721.4267,13432.93,4036.33,-5261.09,10177.71,27520.09,-2713.87,4522.23,24651.2
1051721.4307,13448.76,4145.91,-5208.3,10169.51,27889.73,-2355.67,5867.39,24845.94
1051721.4347,13455.15,4225.87,-5168.63,10172.61,27904.42,-2374.27,6056.6,24838.55
1051721.4387,13416.29,4123.26,-5226.66,10155.3,27489.05,-2778.86,4623.6,24600.41
1051721.4427,13405.28,4013.63,-5293.13,10137.08,27467.3,-2758.93,4347.13,24630.93
1051721.4467,13426.4,4109.67,-5248.17,10135.56,27843.14,-2378.89,5664.3,24858.1
1051721.4507,13440.8,4216.39,-5201.86,10133.41,27924.49,-2331.3,6172.09,24857.57
1051721.4547,13428.5,4156.35,-5213.93,10156.68,27524.76,-2708.29,4828.36,24665.02
1051721.4587,13406.04,4022.74,-5266.95,10174.61,27422.0,-2787.4,4242.8,24629.26
1051721.4627,13418.82,4080.11,-5240.39,10165.64,27794.84,-2433.97,5496.17,24814.75
1051721.4667,13444.38,4212.19,-5179.31,10160.21,27966.69,-2267.03,6270.08,24941.16
1051721.4707,13433.36,4184.87,-5199.05,10153.68,27621.37,-2618.03,5174.11,24745.71
1051721.4747,13413.14,4041.0,-5257.27,10156.44,27412.85,-2801.42,4236.79,24645.24
1051721.4787,13424.06,4050.97,-5260.99,10148.91,27741.96,-2448.89,5282.4,24876.5
1051721.4827,13455.96,4196.6,-5191.57,10157.97,27976.42,-2236.84,6268.22,24985.27
1051721.4867,13449.43,4210.14,-5178.17,10165.41,27695.71,-2553.7,5448.01,24741.84
1051721.4907,13412.95,4065.61,-5254.65,10154.06,27380.04,-2868.8,4231.64,24534.61
1051721.4947,13417.15,4044.25,-5254.22,10160.16,27632.0,-2602.96,4992.2,24678.42
1051721.4987,13442.99,4186.39,-5188.08,10152.63,27926.16,-2316.0,6166.89,24859.57
1051721.5027,13466.31,4235.17,-5180.07,10148.48,27744.34,-2483.65,5707.17,24820.71
1051721.5067,13447.86,4110.58,-5224.94,10166.31,27413.09,-2785.59,4368.97,24683.53
1051721.5107,13406.47,4028.46,-5261.04,10161.21,27599.39,-2604.48,4836.37,24750.19
1051721.5147,13418.96,4138.9,-5203.06,10154.96,27895.84,-2304.51,6030.99,24887.99
1051721.5187,13440.09,4218.1,-5168.53,10165.41,27780.06,-2425.29,5845.74,24824.77
1051721.5227,13438.04,4130.84,-5207.11,10182.0,27399.11,-2813.67,4442.45,24583.96
1051721.5267,13410.71,4023.79,-5268.81,10154.68,27496.2,-2696.56,4549.79,24663.98
1051721.5307,13422.2,4123.12,-5225.52,10130.12,27854.49,-2367.35,5875.3,24822.43
1051721.5347,13446.52,4223.82,-5184.56,10133.22,27863.41,-2354.53,6098.65,24864.15
1051721.5387,13452.77,4157.26,-5207.35,10152.77,27475.79,-2721.12,4695.89,24708.89
1051721.5427,13421.01,4025.08,-5276.44,10143.71,27458.91,-2728.08,4414.7,24686.86
1051721.5467,13412.62,4085.02,-5264.38,10122.82,27817.3,-2382.8,5707.84,24871.5
1051721.5507,13449.86,4217.1,-5195.81,10138.47,27909.81,-2307.84,6222.58,24914.65
1051721.5546,13426.11,4165.46,-5205.92,10155.73,27534.73,-2674.48,4925.87,24720.62
1051721.5586,13412.05,4028.61,-5253.51,10164.6,27437.88,-2720.17,4306.84,24761.06
1051721.5626,13422.35,4065.37,-5242.25,10145.86,27839.19,-2348.47,5600.55,24968.44
1051721.5666,13400.46,4169.51,-5196.62,10130.6,27969.51,-2288.1,6325.67,24872.64
1051721.5706,13414.81,4181.91,-5194.38,10148.24,27591.47,-2638.91,5171.49,24661.93
1051721.5746,13429.55,4068.8,-5249.17,10161.78,27383.0,-2817.35,4208.66,24594.45
1051721.5786,13423.78,4065.7,-5252.74,10151.34,27706.82,-2479.55,5263.38,24792.63
1051721.5826,13444.23,4200.51,-5190.33,10143.42,27957.11,-2280.62,6274.56,24873.55
1051721.5866,13455.39,4222.11,-5184.75,10150.0,27689.6,-2514.55,5471.23,24774.36
1051721.5906,13435.75,4089.07,-5233.86,10160.26,27380.8,-2758.6,4248.05,24698.36
1051721.5946,13406.23,4033.28,-5262.42,10141.61,27636.63,-2479.17,5003.26,24890.28
1051721.5986,13428.55,4160.17,-5204.44,10134.03,27952.25,-2216.58,6203.6,25006.25
1051721.6026,13437.65,4202.08,-5206.73,10117.63,27761.27,-2428.96,5727.43,24840.55
1051721.6066,13419.39,4082.49,-5258.08,10130.31,27375.61,-2794.55,4323.67,24625.11
1051721.6106,13411.33,4019.5,-5273.44,10140.23,27547.55,-2619.36,4769.42,24685.2
1051721.6146,13407.61,4136.04,-5220.94,10124.4,27898.84,-2291.68,6058.5,24883.56
1051721.6186,13435.75,4216.91,-5185.8,10136.75,27830.79,-2369.45,5966.04,24867.44
1051721.6226,13437.7,4123.83,-5218.36,10165.98,27441.22,-2721.41,4535.25,24708.75
1051721.6266,13400.51,4003.81,-5286.46,10136.37,27520.33,-2620.98,4607.49,24795.01
1051721.6306,13408.95,4101.56,-5243.97,10109.28,27875.19,-2324.2,5922.32,24893.05
1051721.6346,13422.16,4194.02,-5202.39,10100.89,27915.72,-2299.21,6215.72,24910.88
1051721.6386,13419.06,4121.21,-5224.23,10135.6,27506.64,-2681.06,4781.87,24707.51
1051721.6426,13402.85,3996.28,-5284.79,10139.32,27466.63,-2684.55,4450.46,24722.87
1051721.6466,13413.86,4088.88,-5262.47,10109.19,27832.13,-2366.3,5726.67,24842.07
1051721.6506,13448.67,4231.07,-5181.36,10128.55,27954.49,-2280.19,6290.39,24872.07
1051721.6546,13439.85,4177.86,-5193.81,10142.14,27589.75,-2612.88,5054.76,24742.7
1051721.6586,13404.7,4025.36,-5265.57,10148.05,27432.78,-2734.76,4354.76,24695.45
1051721.6626,13400.51,4058.7,-5250.79,10143.95,27778.63,-2392.63,5521.68,24881.99
1051721.6666,13416.72,4181.05,-5208.3,10120.44,27939.42,-2261.5,6290.48,24909.45
1051721.6706,13428.64,4174.9,-5217.7,10113.05,27597.1,-2581.69,5219.08,24736.03
1051721.6746,13419.06,4038.33,-5263.52,10133.32,27374.32,-2772.19,4241.18,24646.81
1051721.6786,13427.4,4058.89,-5258.13,10143.47,27711.44,-2433.25,5296.52,24870.45
1051721.6825,13436.99,4190.83,-5217.12,10113.19,27958.35,-2198.31,6306.94,24999.76
1051721.6865,13441.52,4201.65,-5215.84,10103.42,27686.31,-2472.54,5511.86,24790.72
1051721.6905,13430.64,4073.81,-5247.16,10136.41,27378.56,-2759.98,4295.59,24613.34
1051721.6945,13410.47,4022.98,-5260.28,10146.43,27645.78,-2496.77,5055.52,24753.81
1051721.6985,13423.64,4151.96,-5204.39,10136.51,27951.39,-2214.48,6248.05,24924.57
1051721.7025,13438.99,4207.71,-5190.85,10126.59,27790.17,-2384.47,5833.58,24835.97
1051721.7065,13397.84,4065.04,-5271.48,10112.57,27412.08,-2729.46,4451.32,24643.47
1051721.7105,13382.25,3991.37,-5313.4,10111.29,27576.12,-2548.79,4858.45,24753.53
1051721.7145,13419.53,4132.7,-5246.12,10107.33,27939.85,-2235.99,6171.42,24921.94
1051721.7185,13454.77,4238.75,-5185.7,10136.27,27885.34,-2299.98,6126.36,24900.49
1051721.7225,13445.05,4132.94,-5228.95,10149.96,27433.49,-2708.29,4606.77,24643.71
1051721.7265,13425.3,4016.69,-5288.08,10142.04,27504.16,-2611.49,4621.84,24719.77
1051721.7305,13425.88,4112.05,-5241.92,10114.53,27873.9,-2289.15,5957.79,24870.54
1051721.7345,13437.42,4216.72,-5203.44,10102.37,27913.29,-2288.87,6293.97,24834.11
1051721.7385,13432.17,4148.77,-5216.84,10132.5,27494.29,-2627.56,4824.26,24721.67
1051721.7425,13400.03,4015.59,-5273.3,10136.51,27455.57,-2642.39,4445.46,24712.47
1051721.7465,13404.99,4076.62,-5254.36,10115.67,27831.51,-2313.9,5764.1,24851.47
1051721.7505,13449.58,4207.8,-5197.38,10116.86,27939.99,-2246.19,6349.52,24842.46
1051721.7545,13450.15,4172.66,-5202.29,10150.15,27551.89,-2592.37,5051.42,24685.81
1051721.7585,13428.02,4040.81,-5244.45,10159.45,27399.97,-2696.37,4318.14,24666.98
1051721.7625,13412.05,4064.18,-5234.67,10147.62,27756.69,-2363.06,5516.39,24821.0
1051721.7665,13440.75,4189.06,-5199.24,10115.05,27947.1,-2211.86,6362.3,24874.02
1051721.7705,13447.43,4184.53,-5201.86,10123.21,27634.34,-2540.68,5369.62,24659.35
1051721.7745,13407.42,4034.04,-5272.44,10133.94,27365.26,-2781.82,4306.36,24509.81
1051721.7785,13392.21,4017.31,-5279.59,10130.88,27692.61,-2448.32,5315.59,24721.1
1051721.7825,13420.87,4158.12,-5214.98,10115.72,27961.59,-2212.48,6352.95,24864.72
1051721.7865,13436.03,4186.77,-5202.15,10115.1,27721.22,-2432.06,5644.37,24771.69
1051721.7905,13428.5,4070.81,-5252.17,10142.09,27399.45,-2724.74,4385.81,24592.69
1051721.7945,13431.03,4038.43,-5274.06,10139.42,27649.84,-2471.26,5081.61,24739.13
1051721.7985,13457.68,4182.34,-5193.33,10140.56,27971.94,-2179.91,6294.35,24903.92
1051721.8025,13460.11,4231.26,-5162.81,10150.82,27802.52,-2335.45,5908.78,24836.59
1051721.8065,13443.9,4119.35,-5210.5,10157.3,27427.77,-2661.56,4501.15,24685.43
1051721.8104,13436.61,4037.67,-5254.08,10152.06,27592.61,-2486.66,4859.97,24790.29
1051721.8144,13454.58,4154.02,-5210.64,10138.47,27962.21,-2189.4,6228.64,24904.68
1051721.8184,13453.53,4219.96,-5188.85,10118.39,27900.27,-2248.81,6209.66,24896.0
1051721.8224,13434.27,4120.11,-5205.97,10159.68,27478.89,-2593.37,4674.15,24780.18
1051721.8264,13411.0,4009.39,-5272.34,10141.28,27532.34,-2536.77,4636.62,24788.67
1051721.8304,13439.32,4127.69,-5219.32,10133.22,27888.02,-2242.8,5953.6,24858.86
1051721.8344,13468.41,4247.28,-5161.33,10139.61,27931.41,-2242.9,6310.89,24833.49
1051721.8384,13446.52,4165.79,-5198.48,10142.76,27495.01,-2609.06,4845.24,24678.38
1051721.8424,13404.66,4008.58,-5274.34,10131.07,27441.46,-2663.37,4437.16,24610.0
1051721.8464,13394.41,4063.65,-5251.46,10121.78,27806.43,-2350.19,5734.02,24723.72
1051721.8504,13429.45,4200.79,-5191.85,10118.91,27943.61,-2228.55,6377.32,24811.08
1051721.8544,13440.09,4176.81,-5196.24,10129.74,27585.56,-2553.94,5149.89,24655.01
1051721.8584,13401.8,4025.41,-5282.78,10110.14,27422.0,-2682.73,4364.63,24585.68
1051721.8624,13416.82,4057.26,-5268.67,10107.57,27786.64,-2323.77,5569.6,24807.41
1051721.8664,13456.39,4206.13,-5180.98,10132.46,27984.19,-2143.67,6437.11,24908.55
1051721.8704,13461.07,4206.56,-5177.21,10155.82,27676.59,-2422.09,5451.68,24789.15
1051721.8744,13442.42,4069.23,-5243.97,10152.77,27420.71,-2665.04,4383.23,24610.33
1051721.8784,13423.73,4048.25,-5269.19,10125.4,27738.96,-2381.37,5370.14,24721.05
1051721.8824,13424.45,4170.37,-5210.21,10101.08,27988.63,-2154.64,6410.41,24852.8
1051721.8864,13441.66,4199.31,-5189.61,10116.63,27747.35,-2378.94,5733.54,24742.32
1051721.8904,13433.22,4083.25,-5231.86,10143.42,27423.91,-2659.46,4479.98,24593.88
1051721.8944,13410.24,4013.01,-5276.25,10128.55,27687.41,-2425.67,5180.5,24703.46
1051721.8984,13403.32,4125.31,-5229.9,10104.23,27962.69,-2165.27,6303.03,24842.41
1051721.9024,13457.92,4224.3,-5174.35,10112.95,27810.43,-2282.67,5948.59,24830.54
1051721.9064,13448.38,4123.88,-5216.6,10151.63,27434.26,-2625.8,4543.54,24633.12
1051721.9104,13407.57,4015.35,-5275.49,10136.46,27588.94,-2457.76,4895.4,24756.91
1051721.9144,13426.45,4143.14,-5221.75,10114.58,27933.51,-2181.53,6172.56,24842.55
1051721.9184,13452.1,4228.97,-5185.46,10109.47,27884.3,-2267.6,6209.66,24758.1
1051721.9224,13442.57,4132.89,-5221.22,10131.41,27467.92,-2636.15,4723.64,24567.03
1051721.9264,13413.57,4009.53,-5277.59,10124.21,27528.29,-2548.03,4688.93,24658.59
1051721.9304,13404.75,4093.55,-5253.32,10093.88,27882.01,-2209.43,5981.73,24842.17
1051721.9344,13430.98,4206.09,-5193.04,10119.53,27923.06,-2191.02,6334.78,24837.54
1051721.9383,13431.98,4154.54,-5211.88,10129.83,27508.21,-2615.12,4953.29,24535.09
1051721.9423,13406.9,4016.21,-5280.54,10117.01,27446.42,-2662.75,4518.51,24504.14
1051721.9463,13407.09,4071.86,-5248.55,10112.48,27824.69,-2284.24,5807.69,24746.42
1051721.9503,13442.18,4203.61,-5192.33,10107.57,27955.68,-2163.27,6466.96,24814.7
1051721.9543,13444.71,4179.34,-5205.16,10118.29,27594.71,-2491.43,5249.88,24662.02
1051721.9583,13407.04,4022.17,-5284.64,10102.42,27419.57,-2628.9,4464.2,24598.36
1051721.9623,13396.07,4039.62,-5267.57,10109.38,27758.65,-2309.89,5599.98,24753.05
1051721.9663,13438.46,4183.58,-5198.05,10116.58,27975.85,-2150.11,6506.87,24791.01
1051721.9703,13454.72,4198.69,-5175.45,10145.33,27669.96,-2437.26,5542.18,24640.32
1051721.9743,13417.44,4044.91,-5251.12,10135.32,27389.1,-2664.33,4421.57,24533.08
1051721.9783,13391.59,4016.3,-5283.64,10102.13,27713.49,-2367.4,5381.54,24705.46
1051721.9823,13414.15,4159.83,-5210.21,10105.32,28003.12,-2099.7,6476.45,24896.58
1051721.9863,13435.56,4195.55,-5193.23,10113.77,27767.8,-2329.4,5812.6,24768.64
1051721.9903,13411.05,4057.17,-5251.98,10115.77,27451.23,-2630.33,4551.94,24583.39
1051721.9943,13384.63,3999.71,-5285.88,10098.41,27687.03,-2384.62,5208.64,24725.49
1051721.9983,13391.54,4135.42,-5225.56,10090.88,27974.04,-2126.98,6366.78,24832.44
1051722.0023,13425.49,4202.89,-5185.18,10108.62,27874.04,-2243.66,6116.15,24789.0
1051722.0063,13409.66,4070.57,-5240.35,10117.72,27441.55,-2604.82,4607.82,24597.65
1051722.0103,13379.72,3983.74,-5297.71,10094.36,27552.56,-2496.48,4839.37,24602.27
1051722.0143,13435.17,4135.99,-5211.78,10140.75,27923.49,-2160.07,6184.48,24796.92
1051722.0183,13449.38,4235.41,-5160.43,10155.25,27913.53,-2176.0,6302.74,24835.26
1051722.0223,13434.94,4146.53,-5209.54,10135.08,27513.32,-2546.69,4859.97,24632.41
1051722.0263,13409.28,4023.46,-5271.72,10109.95,27535.87,-2500.49,4717.3,24671.61
1051722.0303,13423.21,4114.96,-5227.57,10105.8,27902.65,-2176.48,6034.61,24822.24
1051722.0343,13445.33,4226.07,-5183.22,10101.08,27966.98,-2136.18,6439.78,24857.24
1051722.0383,13441.42,4161.22,-5201.2,10126.64,27566.25,-2524.33,5081.8,24599.22
1051722.0423,13403.23,4012.92,-5275.06,10128.79,27496.82,-2606.82,4583.36,24515.82
1051722.0463,13402.42,4071.52,-5257.65,10108.47,27887.06,-2248.1,5882.69,24729.02
1051722.0503,13435.51,4213.05,-5185.08,10113.19,28059.87,-2089.6,6592.47,24872.97
1051722.0543,13437.89,4176.14,-5202.2,10119.92,27695.18,-2438.59,5386.97,24673.13
1051722.0583,13409.19,4024.7,-5273.44,10115.58,27494.2,-2590.13,4506.83,24614.05
1051722.0623,13399.08,4035.33,-5277.49,10097.31,27852.97,-2259.54,5674.98,24789.96
1051722.0662,13426.59,4176.09,-5214.88,10092.4,28031.88,-2126.88,6527.33,24795.11
1051722.0702,13428.59,4187.25,-5204.87,10115.43,27752.69,-2386.52,5645.9,24695.45
1051722.0742,13437.46,4066.42,-5249.12,10128.12,27475.31,-2621.75,4505.11,24565.41
1051722.0782,13431.84,4052.21,-5242.44,10144.9,27753.4,-2325.39,5370.38,24745.37
1051722.0822,13429.36,4176.52,-5192.47,10124.97,27997.88,-2132.7,6425.76,24789.77
1051722.0862,13441.99,4202.27,-5186.46,10114.67,27778.34,-2334.69,5823.57,24718.29
1051722.0902,13427.21,4069.47,-5248.55,10120.3,27442.89,-2646.64,4513.65,24553.92
1051722.0942,13412.62,4017.45,-5278.92,10122.92,27667.0,-2434.25,5126.14,24642.85
1051722.0982,13423.78,4149.1,-5230.0,10096.12,27983.95,-2137.38,6343.56,24818.57
1051722.1022,13440.28,4219.15,-5192.71,10096.88,27891.59,-2232.98,6131.22,24807.22
1051722.1062,13450.86,4128.89,-5208.45,10128.98,27506.5,-2583.55,4696.89,24611.38
1051722.1102,13441.18,4045.3,-5242.25,10149.86,27615.74,-2458.86,4912.33,24679.66
1051722.1142,13451.86,4152.92,-5194.0,10136.08,27972.8,-2137.71,6238.46,24863.68
1051722.1182,13474.66,4246.28,-5146.74,10152.29,27963.45,-2160.26,6373.98,24874.74
1051722.1222,13455.54,4150.68,-5188.28,10158.21,27567.87,-2542.97,4942.47,24641.61
1051722.1262,13411.76,4011.92,-5259.42,10143.09,27572.92,-2514.65,4779.77,24644.9
1051722.1302,13427.97,4108.72,-5219.17,10132.46,27936.13,-2162.41,6078.53,24862.67
1051722.1342,13460.45,4229.93,-5167.91,10130.03,28012.52,-2094.22,6511.12,24935.63
1051722.1382,13438.85,4163.17,-5190.61,10141.76,27613.69,-2466.68,5158.38,24720.0
1051722.1422,13417.01,4024.41,-5262.09,10135.89,27502.11,-2576.21,4610.21,24597.5
1051722.1462,13432.31,4089.79,-5232.76,10136.75,27886.78,-2204.94,5872.2,24830.87
1051722.1502,13461.35,4228.54,-5160.62,10153.82,28044.99,-2100.28,6576.78,24840.69
1051722.1542,13457.49,4185.53,-5195.33,10129.6,27679.49,-2441.5,5388.69,24686.43
1051722.1582,13411.71,4030.75,-5265.28,10128.17,27461.58,-2645.87,4484.32,24496.37
1051722.1622,13403.8,4040.15,-5276.16,10102.32,27776.72,-2362.25,5562.93,24596.93
1051722.1662,13439.85,4183.01,-5202.2,10113.38,28020.67,-2128.17,6532.86,24776.46
1051722.1702,13447.1,4198.69,-5181.89,10136.37,27763.32,-2364.35,5673.55,24700.84
1051722.1742,13415.48,4047.01,-5269.53,10108.76,27464.92,-2636.67,4522.71,24532.37
1051722.1782,13404.9,4018.26,-5288.32,10097.41,27756.5,-2366.97,5404.38,24659.35
1051722.1822,13427.4,4162.55,-5206.78,10112.48,28039.08,-2105.38,6512.69,24818.85
1051722.1862,13437.27,4199.93,-5195.43,10110.57,27818.4,-2305.65,5928.09,24729.21
1051722.1902,13417.05,4067.66,-5256.03,10121.73,27465.35,-2629.76,4604.24,24522.5
1051722.1941,13405.37,4015.64,-5271.29,10134.17,27692.61,-2397.97,5211.16,24646.38
1051722.1981,13423.73,4143.76,-5214.74,10104.23,28009.75,-2098.75,6424.71,24828.72
1051722.2021,13441.71,4207.33,-5190.66,10101.18,27900.46,-2194.79,6193.78,24826.24
1051722.2061,13433.6,4107.9,-5237.29,10121.68,27504.78,-2533.15,4758.26,24675.85
1051722.2101,13424.3,4013.82,-5277.11,10125.59,27641.01,-2418.61,4992.39,24699.69
1051722.2141,13440.66,4131.27,-5211.54,10125.11,27999.83,-2109.48,6303.41,24836.83
1051722.2181,13459.97,4224.25,-5173.45,10124.21,27953.25,-2175.38,6400.49,24757.29
1051722.2221,13436.32,4137.66,-5210.83,10128.88,27573.97,-2525.81,5014.66,24595.74
1051722.2261,13409.28,4011.54,-5269.48,10124.97,27533.39,-2537.35,4715.49,24563.51
1051722.2301,13408.42,4087.16,-5229.71,10123.4,27913.05,-2205.94,6038.38,24728.21
1051722.2341,13425.07,4198.69,-5188.08,10105.66,28014.47,-2102.85,6544.73,24844.36
1051722.2381,13461.31,4183.67,-5209.49,10114.15,27616.55,-2473.4,5204.82,24630.74
1051722.2421,13442.9,4050.68,-5247.21,10145.47,27494.15,-2543.16,4579.97,24616.05
1051722.2461,13437.89,4087.26,-5225.56,10143.47,27854.73,-2228.78,5819.99,24745.51
1051722.2501,13454.87,4218.29,-5180.07,10128.69,28013.52,-2102.9,6571.1,24802.59
1051722.2541,13456.16,4200.89,-5185.18,10140.28,27668.67,-2424.1,5468.18,24633.79
1051722.2581,13425.88,4046.77,-5253.12,10143.47,27458.1,-2587.65,4557.99,24566.37
1051722.2621,13422.2,4057.12,-5242.06,10139.66,27785.78,-2246.62,5619.96,24791.15
1051722.2661,13449.43,4207.9,-5171.01,10123.87,28030.35,-2082.06,6590.56,24835.73
1051722.2701,13464.02,4217.34,-5177.21,10113.29,27742.77,-2349.04,5749.27,24712.23
1051722.2741,13429.5,4070.47,-5239.73,10142.71,27466.44,-2581.17,4573.15,24612.91
1051722.2781,13412.19,4035.14,-5272.91,10108.38,27746.63,-2356.67,5426.84,24683.76
1051722.2821,13430.88,4167.75,-5223.75,10078.86,28033.21,-2115.39,6553.46,24803.55
1051722.2861,13427.21,4202.51,-5201.44,10095.98,27838.66,-2291.78,6038.62,24730.73
1051722.2901,13406.42,4071.52,-5247.02,10119.63,27463.63,-2611.73,4647.54,24555.3
1051722.2941,13400.51,4012.97,-5273.34,10105.18,27697.71,-2350.76,5217.6,24768.5
1051722.2981,13426.83,4145.81,-5235.2,10051.68,28033.88,-2026.46,6462.53,24984.7
1051722.3021,13452.53,4226.92,-5187.94,10120.54,27890.16,-2218.2,6243.23,24707.42
1051722.3061,13420.63,4114.82,-5211.69,10157.11,27500.16,-2593.99,4851.53,24449.26
1051722.3101,13415.53,4029.18,-5257.42,10146.76,27584.51,-2492.52,4968.93,24493.89
1051722.3141,13444.0,4146.58,-5219.41,10115.53,27927.07,-2166.8,6202.46,24703.46
1051722.3181,13456.01,4232.5,-5191.66,10094.98,27953.44,-2152.25,6460.1,24759.25
1051722.322,13432.98,4137.95,-5236.2,10097.17,27556.85,-2536.63,5092.34,24511.48
1051722.326,13403.08,4007.72,-5283.31,10096.12,27522.33,-2521.28,4792.69,24518.73
1051722.33,13408.71,4078.01,-5254.32,10071.47,27857.83,-2212.95,6047.44,24682.43
1051722.334,13417.53,4196.79,-5206.3,10068.99,27945.19,-2113.68,6539.39,24781.09
1051722.338,13396.69,4141.47,-5236.01,10089.92,27564.15,-2495.67,5231.33,24535.99
1051722.342,13375.19,3981.02,-5340.62,10073.76,27464.54,-2583.55,4649.02,24480.68
1051722.346,13388.3,4034.38,-5313.25,10063.46,27846.05,-2224.64,5901.72,24709.18
1051722.35,13448.14,4215.05,-5169.25,10127.45,28022.2,-2072.19,6666.47,24819.66
1051722.354,13469.6,4221.68,-5148.84,10165.07,27666.14,-2384.71,5538.89,24669.46
1051722.358,13447.0,4098.7,-5200.72,10200.64,27449.94,-2569.87,4616.5,24551.06
1051722.362,13436.13,4112.77,-5195.19,10190.58,27773.72,-2296.02,5643.99,24643.85
1051722.366,13438.37,4233.03,-5147.46,10166.93,28022.34,-2076.82,6648.26,24806.69
1051722.37,13435.13,4242.37,-5139.21,10183.72,27714.02,-2375.46,5806.97,24607.52
1051722.374,13430.6,4117.2,-5176.02,10207.84,27402.55,-2681.45,4584.98,24382.83
1051722.378,13420.77,4089.26,-5177.12,10224.87,27689.22,-2404.17,5395.7,24532.99
1051722.382,13449.38,4242.85,-5099.44,10222.01,28005.6,-2112.44,6569.29,24722.25
1051722.386,13500.12,4313.37,-5051.38,10293.96,27870.18,-2223.35,6154.82,24723.82
1051722.39,13451.48,4203.18,-5066.2,10343.12,27489.71,-2547.03,4764.22,24545.15
1051722.394,13433.89,4140.19,-5101.54,10338.26,27640.39,-2434.59,5192.9,24495.8
1051722.398,13452.77,4264.21,-5055.67,10321.38,27964.5,-2143.48,6419.42,24643.38
1051722.402,13444.62,4334.97,-5035.11,10320.71,27902.18,-2211.05,6319.71,24614.96
1051722.406,13419.2,4220.96,-5066.92,10321.62,27540.11,-2527.09,4959.39,24453.07
1051722.41,13425.07,4124.31,-5108.88,10334.45,27621.51,-2395.44,5041.41,24581.86
1051722.414,13447.72,4236.17,-5056.24,10333.59,27945.47,-2057.7,6270.84,24785.57
1051722.418,13461.5,4319.67,-5041.22,10298.97,27966.98,-2110.24,6506.97,24651.34
1051722.422,13436.32,4233.27,-5082.37,10297.44,27570.97,-2462.24,5109.88,24468.76
1051722.426,13406.71,4099.51,-5144.07,10293.44,27541.78,-2461.39,4779.39,24458.08
1051722.43,13421.73,4178.48,-5107.4,10292.58,27915.58,-2169.8,6089.12,24522.78
1051722.434,13451.58,4301.64,-5050.23,10289.86,28025.3,-2038.72,6650.4,24658.06
1051722.438,13430.98,4243.04,-5084.56,10273.55,27655.32,-2403.69,5375.43,24450.35
1051722.442,13384.06,4090.36,-5151.18,10283.66,27539.07,-2512.65,4738.24,24361.71
1051722.446,13388.35,4129.51,-5140.16,10266.64,27888.21,-2177.1,5900.43,24550.58
1051722.4499,13423.21,4264.98,-5078.13,10264.68,28069.59,-2017.36,6697.08,24653.96
1051722.4539,13439.8,4261.68,-5062.91,10302.35,27749.4,-2324.82,5654.62,24484.26
1051722.4579,13411.48,4116.77,-5127.62,10305.6,27539.97,-2497.15,4695.37,24411.63
1051722.4619,13406.8,4117.68,-5139.3,10272.69,27876.33,-2165.17,5740.69,24621.73
1051722.4659,13402.65,4241.28,-5096.72,10239.89,28126.67,-1987.17,6749.54,24688.58
1051722.4699,13402.8,4242.23,-5098.2,10247.76,27859.98,-2246.81,5966.09,24553.25
1051722.4739,13386.49,4111.43,-5125.86,10291.72,27518.08,-2509.21,4691.12,24422.31
1051722.4779,13407.28,4092.74,-5137.06,10301.07,27767.09,-2258.68,5418.16,24545.53
1051722.4819,13443.28,4248.81,-5081.27,10279.8,28060.25,-1980.83,6560.14,24729.06
1051722.4859,13425.73,4277.56,-5084.8,10251.0,27885.39,-2184.92,6129.69,24587.59
1051722.4899,13399.65,4146.43,-5134.96,10268.88,27524.81,-2535.63,4766.66,24341.73
1051722.4939,13370.47,4052.78,-5196.14,10234.55,27731.09,-2324.44,5242.63,24499.94
1051722.4979,13367.8,4153.68,-5157.42,10204.46,28068.64,-1994.8,6511.36,24734.69
1051722.5019,13386.35,4248.62,-5090.95,10246.42,27972.32,-2097.94,6370.74,24653.87
1051722.5059,13402.13,4170.9,-5110.93,10285.52,27589.18,-2475.45,4965.07,24383.6
1051722.5099,13389.92,4061.65,-5184.36,10253.0,27664.76,-2388.0,5046.46,24437.38
1051722.5139,13384.87,4150.2,-5141.26,10232.83,28037.84,-2046.97,6342.7,24676.85
1051722.5179,13385.92,4238.99,-5102.64,10234.79,28051.48,-2069.14,6595.85,24612.33
1051722.5219,13364.51,4160.98,-5133.68,10252.29,27623.32,-2443.03,5174.54,24392.8
1051722.5259,13344.48,4034.85,-5192.57,10255.29,27596.52,-2443.7,4863.45,24396.66
1051722.5299,13335.23,4089.69,-5180.07,10223.1,27957.63,-2122.26,6150.53,24580.24
1051722.5339,13394.55,4245.09,-5099.49,10238.7,28086.71,-2028.13,6751.2,24639.9
1051722.5379,13432.03,4238.94,-5088.43,10278.56,27742.91,-2336.98,5538.18,24485.02
1051722.5419,13350.15,4040.53,-5198.57,10244.37,27538.02,-2493.48,4766.61,24386.36
1051722.5459,13317.01,4055.41,-5199.05,10212.85,27890.16,-2165.17,5931.28,24586.39
1051722.5499,13353.54,4212.52,-5114.13,10224.92,28091.77,-1979.07,6767.7,24714.85
1051722.5539,13379.53,4213.95,-5109.36,10254.19,27729.37,-2328.73,5699.92,24465.8
1051722.5579,13348.44,4058.74,-5195.14,10231.4,27479.99,-2552.32,4693.65,24319.41
1051722.5619,13345.58,4050.54,-5202.68,10216.29,27807.43,-2246.81,5691.29,24479.82
1051722.5659,13358.55,4192.73,-5129.58,10224.44,28064.78,-1987.65,6718.06,24683.62
1051722.5699,13380.1,4222.25,-5126.19,10224.25,27813.25,-2261.97,5988.36,24492.36
1051722.5739,13329.65,4068.76,-5203.58,10211.66,27500.97,-2534.2,4780.44,24330.57
1051722.5778,13303.42,4021.79,-5228.38,10211.04,27782.4,-2259.54,5555.92,24509.39
1051722.5818,13330.84,4157.35,-5162.38,10219.48,28058.72,-2001.76,6664.09,24679.57
1051722.5858,13332.42,4207.52,-5147.17,10207.46,27873.85,-2203.75,6221.92,24507.53
1051722.5898,13326.17,4097.41,-5188.51,10210.94,27506.78,-2534.58,4856.25,24264.24
1051722.5938,13316.11,4010.49,-5231.52,10207.37,27678.64,-2368.07,5263.81,24347.12
1051722.5978,13325.6,4127.65,-5174.73,10203.7,28025.44,-2049.21,6525.61,24567.03
1051722.6018,13357.12,4221.3,-5141.21,10201.26,27963.07,-2122.74,6469.92,24518.06
1051722.6058,13346.34,4130.27,-5174.69,10220.24,27563.86,-2471.49,5047.75,24276.83
1051722.6098,13294.08,4006.05,-5236.39,10203.03,27622.42,-2405.74,5058.86,24293.28
1051722.6138,13315.01,4110.05,-5182.7,10221.15,27999.12,-2078.82,6384.85,24483.02
1051722.6178,13370.37,4243.95,-5119.09,10233.88,28030.26,-2060.6,6679.44,24482.54
1051722.6218,13300.37,4132.56,-5172.49,10198.26,27621.42,-2430.06,5306.15,24249.22
1051722.6258,13283.16,4012.39,-5216.89,10219.48,27568.49,-2462.1,4912.23,24204.64
1051722.6298,13310.96,4082.73,-5208.83,10197.45,27944.81,-2098.85,6165.17,24478.96
1051722.6338,13333.85,4205.13,-5163.24,10189.73,28046.42,-2016.74,6738.0,24521.64
1051722.6378,13329.32,4180.1,-5159.38,10225.73,27665.28,-2390.86,5499.08,24192.77
1051722.6418,13305.19,4040.96,-5215.45,10240.6,27525.62,-2504.35,4778.34,24093.06
1051722.6458,13297.56,4059.51,-5215.36,10207.7,27893.26,-2157.12,5962.52,24341.11
1051722.6498,13348.01,4212.81,-5139.59,10207.32,28112.7,-1953.55,6862.5,24511.05
1051722.6538,13349.11,4195.6,-5144.93,10215.43,27774.15,-2241.9,5837.39,24324.94
1051722.6578,13277.77,4027.99,-5246.59,10189.49,27475.69,-2514.74,4709.05,24098.11
1051722.6618,13270.43,4034.95,-5232.57,10207.51,27788.07,-2229.4,5688.62,24252.23
1051722.6658,13303.57,4182.43,-5171.63,10189.68,28061.58,-2009.34,6752.4,24383.5
1051722.6698,13329.89,4210.52,-5167.15,10185.39,27829.79,-2240.99,6089.16,24214.18
1051722.6738,13305.24,4075.34,-5218.84,10202.36,27511.89,-2525.85,4858.69,23972.32
1051722.6778,13266.42,4022.88,-5246.12,10196.73,27751.83,-2258.49,5517.39,24170.31
1051722.6818,13347.34,4200.6,-5150.46,10244.08,28090.38,-1951.31,6712.01,24378.3
1051722.6858,13341.19,4228.83,-5160.76,10220.1,27894.79,-2146.63,6341.74,24210.12
1051722.6898,13310.62,4108.14,-5188.75,10239.36,27522.61,-2484.27,4952.96,23928.31
1051722.6938,13254.79,4018.16,-5228.81,10237.27,27678.68,-2328.4,5306.05,23994.4
1051722.6978,13305.43,4168.13,-5161.19,10231.73,28034.12,-2003.05,6594.47,24222.04
1051722.7018,13361.88,4271.13,-5099.15,10290.72,27971.89,-2068.62,6563.28,24130.06
1051722.7057,13346.67,4181.67,-5132.2,10296.25,27569.11,-2415.94,5115.65,23870.57
1051722.7097,13269.09,4036.09,-5199.48,10270.17,27619.03,-2354.77,5090.28,23872.66
1051722.7137,13298.23,4140.47,-5152.85,10269.12,28000.22,-2015.88,6406.45,24073.56
1051722.7177,13341.48,4266.5,-5098.39,10288.38,28069.64,-1936.39,6781.05,24165.11
1051722.7217,13350.3,4201.46,-5134.39,10287.95,27647.5,-2311.71,5397.89,23854.21
1051722.7257,13335.13,4081.87,-5177.45,10300.92,27587.46,-2361.97,4998.16,23769.81
1051722.7297,13294.89,4119.21,-5167.2,10277.13,27938.56,-2036.43,6214.91,24027.78
1051722.7337,13319.88,4235.79,-5139.02,10249.52,28054.57,-1932.57,6804.28,24120.05
1051722.7377,13321.45,4205.47,-5146.12,10272.69,27699.33,-2263.5,5640.46,23864.65
1051722.7417,13281.49,4065.99,-5191.14,10292.2,27548.55,-2372.07,4922.82,23780.92
1051722.7457,13285.11,4095.22,-5186.65,10266.4,27910.62,-2023.27,6073.38,24068.98
1051722.7497,13305.71,4223.16,-5137.21,10260.54,28144.41,-1832.82,6975.13,24221.38
1051722.7537,13315.73,4224.83,-5132.44,10278.46,27773.15,-2155.49,5904.58,23989.63
1051722.7577,13299.13,4073.38,-5206.59,10266.21,27503.54,-2375.56,4865.5,23851.25
1051722.7617,13287.97,4055.64,-5224.18,10248.42,27793.08,-2149.3,5761.81,23957.3
1051722.7657,13299.85,4221.3,-5121.8,10287.29,28081.23,-1879.36,6817.91,24182.94
1051722.7697,13313.34,4250.81,-5117.46,10284.0,27850.39,-2096.8,6174.28,24034.22
1051722.7737,13299.51,4112.29,-5179.79,10285.43,27502.92,-2399.44,4921.58,23794.27
1051722.7777,13296.27,4062.75,-5201.67,10291.05,27740.15,-2179.81,5549.38,23945.76
1051722.7817,13306.95,4190.73,-5146.65,10287.24,28038.17,-1928.28,6697.46,24102.6
1051722.7857,13307.57,4245.66,-5129.86,10287.33,27871.9,-2124.26,6359.96,23911.57
1051722.7897,13296.32,4139.85,-5165.24,10301.88,27514.75,-2448.03,5029.63,23695.19
1051722.7937,13295.84,4067.37,-5204.39,10277.32,27681.4,-2255.25,5368.52,23866.37
1051722.7977,13287.12,4163.55,-5181.84,10258.06,28000.79,-1952.93,6598.43,24108.94
1051722.8017,13315.11,4253.44,-5126.14,10290.19,27977.18,-1991.8,6643.44,24104.74
1051722.8057,13312.29,4166.27,-5159.33,10299.11,27588.08,-2365.06,5278.83,23794.32
1051722.8097,13272.67,4033.66,-5219.56,10294.39,27616.07,-2307.32,5206.82,23823.12
1051722.8137,13276.48,4137.9,-5163.77,10300.21,27986.67,-1973.44,6475.64,24065.45
1051722.8177,13314.53,4255.82,-5119.28,10296.01,28033.31,-1944.78,6790.69,24079.85
1051722.8217,13329.56,4206.23,-5135.78,10324.1,27652.55,-2304.6,5506.47,23802.33
1051722.8257,13296.27,4060.17,-5210.69,10312.46,27599.0,-2343.61,5131.67,23773.48
1051722.8297,13295.94,4119.44,-5186.03,10303.64,27964.02,-1993.32,6337.55,24057.44
1051722.8336,13318.21,4249.19,-5121.76,10306.31,28071.98,-1880.79,6882.0,24166.06
1051722.8376,13316.63,4227.16,-5109.02,10351.33,27716.21,-2199.36,5731.11,23945.53
1051722.8416,13318.97,4102.18,-5156.57,10369.68,27556.14,-2335.45,4971.41,23837.62
1051722.8456,13308.15,4113.48,-5155.37,10358.76,27895.79,-2049.97,6075.05,23983.1
1051722.8496,13341.33,4283.91,-5079.37,10347.27,28114.51,-1839.26,6937.7,24194.29
1051722.8536,13377.86,4310.51,-5060.29,10371.83,27822.16,-2161.84,6026.65,23884.49
1051722.8576,13342.33,4148.29,-5131.53,10381.37,27520.71,-2436.21,4938.98,23643.93
1051722.8616,13357.74,4145.67,-5121.47,10404.21,27814.11,-2186.25,5851.79,23797.8
1051722.8656,13422.44,4326.73,-5021.38,10436.44,28095.44,-1917.22,6899.5,24032.21
1051722.8696,13418.58,4364.68,-4996.54,10459.14,27883.34,-2084.02,6285.53,23994.4
1051722.8736,13391.78,4231.36,-5052.14,10466.67,27532.01,-2414.8,5008.17,23719.79
1051722.8776,13377.91,4171.99,-5078.32,10457.47,27749.92,-2246.62,5615.28,23767.24
1051722.8816,13442.95,4347.23,-4978.13,10486.94,28097.35,-1917.79,6835.56,24056.06
1051722.8856,13470.32,4430.77,-4939.7,10504.01,27969.6,-2033.76,6555.56,24005.8
1051722.8896,13432.17,4289.34,-5015.42,10491.32,27543.12,-2408.03,5132.44,23720.31
1051722.8936,13412.86,4187.39,-5073.83,10476.07,27669.39,-2278.38,5390.84,23793.94
1051722.8976,13418.53,4304.7,-5001.74,10481.41,28031.64,-1949.5,6648.11,24066.69
1051722.9016,13441.23,4401.73,-4956.34,10489.27,28000.5,-1998.81,6723.21,24036.03
1051722.9056,13453.87,4318.52,-4999.59,10502.48,27577.55,-2376.27,5316.16,23765.66
1051722.9096,13403.89,4183.48,-5070.5,10483.31,27580.55,-2330.02,5173.54,23807.96
1051722.9136,13391.4,4261.54,-5040.55,10461.0,27965.5,-1979.4,6444.88,24098.21
1051722.9176,13472.61,4422.24,-4954.1,10493.9,28075.7,-1864.43,6874.71,24247.46
1051722.9216,13430.69,4339.5,-4998.4,10484.84,27715.35,-2227.12,5652.86,23942.43
1051722.9256,13306.86,4111.53,-5150.27,10398.44,27540.59,-2428.77,5105.02,23672.92
1051722.9296,13337.33,4182.48,-5118.9,10399.77,27896.36,-2083.35,6272.6,23943.14
1051722.9336,13363.79,4313.18,-5058.0,10415.03,28054.86,-1925.66,6935.22,24095.82
1051722.9376,13334.8,4253.91,-5095.39,10387.61,27675.82,-2283.57,5775.21,23828.22
1051722.9416,13307.67,4114.53,-5153.32,10399.96,27509.41,-2440.07,4988.96,23695.52
1051722.9456,13289.21,4115.2,-5175.54,10369.87,27843.05,-2157.59,6071.62,23837.0
1051722.9496,13300.66,4234.98,-5131.91,10347.22,28065.97,-1952.7,6961.25,23996.88
1051722.9536,13290.74,4230.55,-5140.4,10349.32,27765.66,-2225.97,6068.8,23806.81
1051722.9576,13251.45,4088.69,-5211.64,10339.93,27491.24,-2466.35,4977.89,23625.52
1051722.9615,13254.83,4073.14,-5217.7,10343.7,27793.51,-2164.55,5872.54,23865.04
1051722.9655,13268.95,4203.61,-5161.0,10330.49,28091.67,-1888.08,6958.91,24091.77
1051722.9695,13256.5,4225.68,-5154.85,10330.34,27862.84,-2103.76,6345.08,23944.67
1051722.9735,13228.99,4072.29,-5233.34,10326.82,27469.35,-2463.91,5020.24,23638.68
1051722.9775,13218.36,4011.11,-5263.9,10305.02,27711.06,-2245.0,5605.03,23787.64
1051722.9815,13208.44,4142.33,-5219.32,10272.36,28068.74,-1938.15,6837.75,24051.48
1051722.9855,13250.35,4225.25,-5172.59,10318.42,27954.06,-2057.84,6605.91,23992.45
1051722.9895,13251.93,4128.22,-5206.39,10351.33,27575.35,-2369.59,5247.69,23797.71
1051722.9935,13208.82,4005.48,-5272.34,10318.71,27697.19,-2251.29,5474.85,23901.27
1051722.9975,13221.12,4097.89,-5232.62,10277.13,28013.47,-1964.33,6650.26,24098.21
1051723.0015,13228.56,4208.9,-5179.26,10284.47,27995.11,-1997.09,6727.36,24073.56
1051723.0055,13206.05,4124.07,-5222.51,10333.73,27568.96,-2385.57,5346.2,23755.7
1051723.0095,13174.49,3981.3,-5298.95,10319.38,27589.61,-2402.74,5218.89,23669.96
1051723.0135,13187.93,4063.03,-5260.52,10304.83,27996.97,-2019.21,6522.23,23992.02
1051723.0175,13209.96,4176.43,-5211.93,10304.6,28058.44,-1979.02,6918.34,24026.83
1051723.0215,13190.7,4109.76,-5248.64,10297.73,27652.84,-2343.7,5611.32,23755.98
1051723.0255,13178.87,3991.94,-5291.65,10307.84,27597.57,-2370.45,5167.58,23742.01
1051723.0295,13161.37,4030.66,-5278.54,10293.29,27960.83,-2041.63,6403.45,23969.56
1051723.0335,13161.57,4135.75,-5256.99,10251.48,28089.29,-1930.76,7022.67,24076.37
1051723.0375,13190.75,4129.7,-5242.16,10289.86,27712.06,-2252.2,5849.22,23842.24
1051723.0415,13169.81,3993.08,-5290.7,10309.89,27505.35,-2431.82,5000.12,23658.76
1051723.0455,13157.32,4002.09,-5304.19,10281.47,27871.14,-2086.02,6104.76,23949.58
1051723.0495,13167.19,4129.41,-5258.47,10256.63,28082.37,-1908.83,6957.96,24102.93
1051723.0535,13161.8,4137.23,-5252.46,10268.02,27791.79,-2217.05,6123.54,23824.74
1051723.0575,13138.3,4000.85,-5307.25,10297.35,27515.65,-2486.09,5053.47,23614.89
1051723.0615,13148.64,3983.26,-5320.12,10278.13,27785.78,-2209.95,5855.75,23822.07
1051723.0655,13146.35,4108.72,-5270.24,10241.41,28070.41,-1942.35,6915.0,24059.44
1051723.0695,13163.62,4135.8,-5264.33,10244.47,27871.99,-2111.86,6373.22,24002.75
1051723.0735,13177.25,4045.87,-5279.49,10306.69,27549.27,-2436.45,5124.0,23701.48
1051723.0775,13131.43,3956.94,-5337.95,10265.02,27714.21,-2274.13,5645.9,23798.37
1051723.0815,13153.27,4085.92,-5282.83,10262.78,28043.18,-1961.33,6807.8,24061.68
1051723.0855,13171.1,4161.26,-5245.97,10274.27,27949.0,-2071.67,6592.8,23978.09
1051723.0894,13167.86,4062.22,-5282.78,10284.57,27560.43,-2419.62,5222.75,23720.65
1051723.0934,13109.88,3929.47,-5362.56,10247.85,27670.15,-2324.82,5402.8,23779.25
1051723.0974,13133.43,4058.17,-5291.61,10278.13,28058.25,-1988.36,6696.32,24032.4
1051723.1014,13129.86,4133.84,-5275.63,10251.24,28044.37,-2019.12,6826.69,24016.38
1051723.1054,13120.27,4044.2,-5322.41,10248.76,27641.97,-2365.3,5446.72,23799.09
1051723.1094,13086.46,3909.64,-5386.69,10239.17,27667.0,-2323.48,5280.5,23841.53
1051723.1134,13099.72,4005.05,-5335.62,10247.42,28079.8,-1925.42,6579.45,24181.75
1051723.1174,13127.42,4119.25,-5291.75,10239.94,28136.21,-1938.68,6974.36,24059.92
1051723.1214,13120.51,4066.85,-5302.91,10256.24,27736.81,-2338.12,5707.69,23678.78
1051723.1254,13134.96,3956.7,-5357.74,10252.33,27635.15,-2394.06,5137.73,23687.89
1051723.1294,13169.81,4021.45,-5317.26,10265.16,28015.28,-2040.15,6338.02,23949.58
1051723.1334,13198.28,4177.24,-5222.04,10312.27,28185.23,-1891.8,7025.81,24061.92
1051723.1374,13159.23,4116.73,-5274.39,10266.5,27748.4,-2307.27,5835.01,23700.29
1051723.1414,13141.3,3979.54,-5347.54,10230.02,27521.09,-2539.4,4958.77,23447.09
1051723.1454,13180.78,4021.31,-5315.64,10259.82,27943.57,-2177.95,6075.81,23745.25
1051723.1494,13265.85,4195.83,-5232.38,10268.4,28174.07,-1956.18,6983.33,23958.4
1051723.1534,13261.75,4193.02,-5242.83,10265.54,27890.73,-2219.34,6165.79,23785.26
1051723.1574,13275.77,4080.96,-5267.91,10308.93,27594.24,-2451.75,5039.26,23617.79
1051723.1614,13281.49,4067.66,-5270.62,10303.78,27887.54,-2178.91,5864.62,23813.68
1051723.1654,13313.63,4206.85,-5206.82,10286.0,28197.1,-1911.5,6972.46,24024.54
1051723.1694,13329.6,4247.0,-5179.69,10301.02,28005.17,-2098.61,6472.73,23901.85
1051723.1734,13348.06,4163.5,-5198.38,10347.75,27665.33,-2397.87,5182.41,23677.54
1051723.1774,13287.74,4059.51,-5272.06,10303.93,27836.61,-2226.16,5657.63,23788.69
1051723.1814,13284.78,4157.5,-5244.78,10257.53,28153.95,-1940.11,6868.94,24000.17
1051723.1854,13348.15,4263.59,-5189.99,10282.95,28100.97,-2004.0,6743.96,23985.05
1051723.1894,13315.35,4141.71,-5251.74,10282.71,27688.17,-2384.23,5328.56,23690.18
1051723.1934,13276.67,4023.17,-5315.59,10270.02,27782.4,-2294.97,5477.48,23737.86
1051723.1974,13292.93,4148.2,-5241.01,10289.19,28173.97,-1927.76,6797.36,24050.67
1051723.2014,13308.91,4239.51,-5203.77,10282.42,28142.41,-1938.01,6919.29,24086.53
1051723.2054,13282.35,4145.15,-5247.69,10277.32,27715.07,-2290.01,5524.54,23858.74
1051723.2094,13274.86,4040.67,-5287.7,10298.78,27689.7,-2301.31,5252.55,23795.51
1051723.2134,13268.04,4100.13,-5274.58,10269.93,28067.5,-2009.68,6524.47,23948.48
1051723.2173,13279.82,4207.8,-5233.19,10264.87,28206.59,-1952.84,7070.45,23985.91
1051723.2213,13286.21,4158.16,-5259.71,10270.6,27763.56,-2341.32,5738.07,23670.06
1051723.2253,13258.36,4021.45,-5323.55,10262.87,27610.21,-2440.07,5090.67,23608.64
1051723.2293,13261.65,4076.82,-5281.64,10286.81,28039.74,-2029.85,6345.94,23957.64
1051723.2333,13243.39,4163.65,-5266.29,10244.85,28166.15,-1945.78,7037.26,23983.29
1051723.2373,13277.2,4167.46,-5251.74,10275.79,27807.91,-2286.43,5979.92,23698.05
1051723.2413,13247.54,4016.78,-5327.03,10272.07,27580.41,-2469.54,5072.45,23561.62
1051723.2453,13248.59,4035.85,-5311.63,10284.0,27935.89,-2129.46,6127.79,23828.7
1051723.2493,13278.63,4190.25,-5235.05,10282.18,28192.81,-1905.39,7049.99,24030.16
1051723.2533,13281.54,4195.74,-5242.78,10278.94,27917.2,-2144.15,6273.56,23887.68
1051723.2573,13234.33,4026.51,-5340.0,10252.29,27578.07,-2455.52,5113.79,23599.68
1051723.2613,13216.26,3989.84,-5345.92,10268.83,27855.83,-2187.59,5914.64,23777.15
1051723.2653,13247.4,4147.67,-5265.28,10275.51,28177.88,-1885.46,7021.81,24049.09
1051723.2693,13262.94,4189.3,-5260.28,10268.98,28006.84,-2053.36,6567.15,23973.75
1051723.2733,13225.99,4051.59,-5321.41,10269.93,27625.09,-2388.81,5256.46,23719.65
1051723.2773,13204.48,3966.48,-5372.81,10248.95,27811.34,-2211.09,5724.57,23831.04
1051723.2813,13244.68,4107.19,-5303.19,10257.53,28187.9,-1927.61,6980.23,23991.3
1051723.2853,13235.52,4163.93,-5284.5,10251.0,28083.28,-2020.31,6840.04,23954.39
1051723.2893,13232.38,4067.9,-5328.32,10261.82,27621.32,-2384.42,5338.57,23689.85
1051723.2933,13207.63,3963.71,-5380.06,10258.1,27725.22,-2281.86,5473.09,23750.93
1051723.2973,13202.1,4061.32,-5331.95,10257.87,28102.78,-1960.99,6771.42,23980.1
1051723.3013,13229.8,4176.43,-5278.44,10271.03,28123.81,-1959.28,6994.34,23988.39
1051723.3053,13233.09,4107.95,-5294.47,10289.24,27703.29,-2335.31,5597.54,23663.91
1051723.3093,13207.34,3984.21,-5344.77,10302.54,27664.43,-2340.56,5274.68,23650.36
1051723.3133,13200.38,4041.15,-5348.78,10259.96,28029.49,-2014.21,6521.75,23907.0
1051723.3173,13233.57,4171.04,-5288.89,10280.18,28143.12,-1918.65,7045.22,23997.93
1051723.3213,13261.18,4164.84,-5254.46,10342.36,27788.69,-2236.08,5822.33,23739.96
1051723.3253,13217.69,4006.29,-5336.43,10319.38,27632.1,-2363.4,5184.65,23596.1
1051723.3293,13193.66,4032.85,-5337.53,10299.83,27999.31,-2055.26,6361.15,23821.17
1051723.3333,13239.05,4184.44,-5270.48,10319.14,28214.27,-1879.07,7148.46,23978.28
1051723.3373,13212.44,4140.33,-5297.14,10309.08,27840.86,-2211.43,6072.66,23714.69
1051723.3413,13206.44,4015.83,-5341.77,10337.97,27633.86,-2382.14,5141.35,23578.89
1051723.3452,13200.33,4009.91,-5350.3,10322.14,27983.38,-2033.52,6196.4,23887.92
1051723.3492,13224.03,4155.06,-5282.83,10332.01,28235.3,-1820.99,7149.94,24035.5
1051723.3532,13247.68,4187.16,-5265.57,10356.33,27942.52,-2113.15,6351.19,23750.45
1051723.3572,13199.14,4034.23,-5336.86,10334.73,27625.56,-2382.14,5158.09,23532.77
1051723.3612,13175.06,3980.21,-5365.32,10325.91,27904.47,-2153.73,5933.57,23652.51
1051723.3652,13214.69,4137.47,-5281.54,10356.81,28193.19,-1897.76,6997.4,23885.73
1051723.3692,13240.86,4201.22,-5262.33,10352.37,28031.5,-2081.25,6598.66,23700.53
1051723.3732,13209.39,4063.27,-5325.51,10353.8,27675.35,-2358.25,5288.55,23519.38
1051723.3772,13215.11,4005.86,-5343.29,10378.74,27840.67,-2186.82,5665.68,23619.61
1051723.3812,13272.43,4172.75,-5238.15,10432.67,28222.52,-1854.94,6936.55,23888.73
1051723.3852,13244.39,4196.64,-5267.19,10355.14,28072.17,-1978.35,6794.74,23811.72
1051723.3892,13208.01,4082.16,-5323.27,10357.05,27645.02,-2367.35,5339.96,23461.25
1051723.3932,13155.32,3957.75,-5385.83,10356.52,27725.99,-2327.25,5379.3,23411.9
1051723.3972,13191.65,4083.35,-5312.3,10373.55,28115.56,-1986.36,6684.59,23679.02
1051723.4012,13227.94,4199.93,-5258.47,10375.74,28164.15,-1932.62,6992.39,23769.33
1051723.4052,13214.35,4125.64,-5302.24,10387.85,27759.98,-2273.23,5624.82,23536.35
1051723.4092,13200.67,3998.9,-5360.22,10397.77,27701.81,-2345.04,5267.95,23407.41
1051723.4132,13217.74,4076.15,-5312.49,10394.81,28091.48,-1998.19,6530.71,23681.41
1051723.4172,13229.18,4189.3,-5261.28,10396.48,28222.42,-1887.42,7117.8,23801.95
1051723.4212,13235.14,4166.75,-5265.81,10430.48,27821.5,-2222.82,5888.32,23535.4
1051723.4252,13218.02,4034.04,-5333.09,10427.19,27675.68,-2338.98,5209.11,23416.09
1051723.4292,13232.61,4074.67,-5314.73,10415.27,28100.06,-1973.77,6438.3,23727.13
1051723.4332,13256.36,4206.8,-5246.21,10433.58,28288.51,-1806.83,7246.26,23895.79
1051723.4372,13260.56,4203.94,-5235.72,10465.24,27962.12,-2131.65,6256.63,23601.92
1051723.4412,13149.79,3991.99,-5377.34,10382.08,27721.65,-2346.56,5309.63,23418.62
1051723.4452,13181.69,4018.78,-5356.22,10395.48,28007.99,-1977.87,6180.1,23808.77
1051723.4492,13247.3,4196.55,-5251.74,10439.83,28241.97,-1843.64,7131.39,23795.8
1051723.4532,13261.51,4217.1,-5257.99,10404.78,28001.6,-2138.81,6439.54,23465.83
1051723.4572,13220.55,4075.05,-5312.97,10412.41,27678.25,-2398.21,5242.3,23259.45
1051723.4612,13215.64,4031.71,-5320.41,10456.52,27906.33,-2170.32,5914.88,23429.44
1051723.4652,13263.85,4191.92,-5235.77,10487.61,28240.68,-1854.23,7098.77,23722.99
1051723.4692,13249.21,4232.69,-5224.99,10479.02,28131.39,-1986.27,6759.26,23663.91
1051723.4731,13230.33,4118.63,-5275.49,10487.61,27747.92,-2245.09,5391.03,23535.3
1051723.4771,13231.33,4045.82,-5307.2,10487.22,27884.01,-2156.73,5719.81,23487.76
1051723.4811,13250.02,4173.14,-5245.54,10466.15,28229.38,-1946.35,6961.73,23541.36
1051723.4851,13236.05,4224.54,-5251.22,10428.48,28150.04,-2017.07,6912.18,23508.36
1051723.4891,13212.16,4120.3,-5300.86,10429.77,27742.34,-2370.12,5479.24,23208.43
1051723.4931,13187.46,4012.44,-5329.9,10453.13,27817.87,-2270.98,5521.82,23315.67
1051723.4971,13217.5,4137.9,-5261.23,10470.87,28208.69,-1926.57,6879.14,23622.75
1051723.5011,13236.81,4243.18,-5218.84,10478.97,28259.14,-1901.1,7187.18,23645.59
1051723.5051,13230.99,4189.3,-5230.05,10506.06,27841.95,-2262.4,5747.61,23342.76
1051723.5091,13233.81,4092.6,-5258.85,10550.45,27792.98,-2288.48,5353.79,23293.45
1051723.5131,13239.0,4168.8,-5205.63,10574.39,28210.21,-1914.12,6702.52,23600.44
1051723.5171,13267.61,4298.02,-5141.88,10586.93,28328.14,-1812.12,7294.61,23720.84
1051723.5211,13244.44,4243.28,-5183.84,10563.28,27912.67,-2186.63,6012.39,23402.36
1051723.5251,13199.52,4111.48,-5225.18,10600.04,27764.09,-2304.79,5256.56,23283.87
1051723.5291,13201.72,4162.69,-5178.69,10647.35,28172.4,-1948.26,6495.38,23578.93
1051723.5331,13199.28,4274.32,-5142.69,10628.75,28350.98,-1805.69,7328.56,23707.73
1051723.5371,13201.57,4277.9,-5143.55,10642.72,28034.64,-2098.89,6321.76,23467.59
1051723.5411,13176.97,4142.48,-5206.44,10644.96,27753.74,-2330.35,5246.35,23242.62
1051723.5451,13172.1,4141.0,-5191.52,10662.75,28071.6,-2028.99,6194.45,23494.15
1051723.5491,13205.91,4295.45,-5109.5,10678.2,28350.6,-1784.37,7247.73,23715.36
1051723.5531,13200.43,4318.48,-5093.67,10700.66,28092.53,-1992.32,6497.72,23578.6
1051723.5571,13178.4,4200.13,-5137.25,10729.84,27761.22,-2253.72,5235.34,23364.83
1051723.5611,13181.69,4150.77,-5178.45,10703.18,28024.96,-2046.44,5989.84,23489.14
1051723.5651,13188.27,4267.84,-5133.82,10675.0,28318.74,-1882.84,7146.93,23529.2
1051723.5691,13175.2,4297.69,-5134.15,10665.66,28162.15,-2045.11,6813.91,23417.86
1051723.5731,13147.69,4192.69,-5163.29,10699.61,27759.75,-2345.42,5373.1,23182.54
1051723.5771,13108.64,4094.41,-5226.71,10679.06,27888.35,-2241.18,5696.01,23215.34
1051723.5811,13135.1,4216.96,-5183.03,10647.2,28236.63,-1944.92,6986.33,23462.97
1051723.5851,13164.0,4303.98,-5140.88,10650.21,28208.74,-1962.76,7029.53,23477.7
1051723.5891,13132.14,4200.41,-5196.05,10649.78,27799.66,-2298.69,5565.79,23211.48
1051723.5931,13118.89,4094.79,-5251.12,10663.22,27860.17,-2232.84,5507.47,23232.89
1051723.5971,13114.22,4190.21,-5195.14,10670.23,28260.14,-1884.51,6867.6,23512.03
1051723.601,13140.63,4321.15,-5131.01,10690.12,28312.4,-1838.06,7237.72,23561.39
1051723.605,13130.62,4258.54,-5165.48,10694.55,27874.43,-2190.78,5801.58,23273.28
1051723.609,13126.33,4144.57,-5207.83,10709.81,27806.95,-2196.98,5370.19,23260.5
1051723.613,13136.2,4206.42,-5187.37,10695.22,28223.95,-1845.69,6712.49,23573.88
1051723.617,13163.47,4355.38,-5121.37,10695.27,28385.45,-1736.36,7363.8,23675.06
1051723.621,13134.53,4295.06,-5147.79,10716.01,27945.57,-2097.65,6052.49,23408.7
1051723.625,13100.91,4160.45,-5214.64,10717.82,27762.32,-2221.87,5266.29,23310.71
1051723.629,13115.46,4185.01,-5214.69,10705.85,28131.3,-1886.51,6459.43,23587.66
1051723.633,13150.6,4342.56,-5118.9,10731.27,28359.94,-1704.5,7338.48,23746.78
1051723.637,13140.25,4339.03,-5131.91,10727.93,28019.24,-2007.39,6321.53,23516.04
1051723.641,13130.62,4193.74,-5209.11,10715.44,27719.07,-2289.01,5190.75,23234.8
1051723.645,13094.62,4173.09,-5219.13,10724.12,28029.25,-2032.95,6163.65,23442.89
1051723.649,13119.65,4325.3,-5162.57,10717.82,28322.89,-1783.99,7260.04,23693.42
1051723.653,13138.3,4369.55,-5155.52,10716.01,28116.99,-1978.21,6610.92,23557.05
1051723.657,13121.18,4244.14,-5206.68,10730.32,27749.3,-2266.65,5306.82,23299.84
1051723.661,13112.45,4179.38,-5253.7,10707.81,28000.41,-2035.38,5985.31,23490.0
1051723.665,13113.69,4311.47,-5188.08,10685.06,28323.13,-1755.71,7186.94,23706.11
1051723.669,13137.25,4426.72,-5114.84,10750.68,28149.51,-1898.38,6855.15,23586.99
1051723.673,13111.02,4303.98,-5179.45,10716.25,27744.92,-2254.58,5444.24,23257.97
1051723.677,13057.9,4170.75,-5304.15,10565.81,27913.38,-2100.56,5752.95,23350.19
1051723.681,13103.96,4270.22,-5240.58,10635.0,28302.86,-1774.36,7065.2,23647.98
1051723.685,13150.6,4435.64,-5091.95,10849.72,28282.46,-1798.39,7107.78,23637.97
1051723.689,13096.19,4344.75,-5202.96,10779.76,27785.54,-2209.04,5607.22,23256.73
1051723.693,13104.34,4276.66,-5263.62,10710.15,27831.89,-2127.84,5549.05,23306.9
1051723.697,13135.58,4391.34,-5169.92,10692.5,28240.21,-1776.98,6902.41,23607.78
1051723.701,13112.74,4487.9,-5055.95,10766.89,28331.95,-1701.78,7311.15,23713.64
1051723.705,13128.95,4426.77,-5060.48,10825.02,27918.58,-2004.19,5972.91,23493.58
1051723.709,13087.8,4292.44,-5193.09,10725.79,27738.24,-2203.42,5399.13,23132.28
1051723.713,13142.11,4451.56,-5139.78,10742.14,28172.88,-1900.86,6656.17,23376.66
1051723.717,13153.94,4533.1,-5096.72,10711.77,28319.93,-1774.36,7342.43,23519.8
1051723.721,13159.09,4549.84,-5099.63,10708.81,27901.84,-2098.61,6059.31,23236.9
1051723.725,13185.98,4468.87,-5113.65,10749.96,27704.67,-2266.12,5236.53,23030.33
1051723.7289,13184.41,4499.48,-5079.84,10768.8,28105.98,-1919.41,6427.0,23360.26
1051723.7329,13229.8,4660.08,-5001.78,10764.6,28366.81,-1678.42,7366.75,23612.31
1051723.7369,13195.95,4644.3,-5022.96,10739.04,28011.23,-1983.02,6396.53,23321.3
1051723.7409,13154.22,4505.44,-5094.91,10726.26,27715.78,-2262.4,5282.02,22996.48
1051723.7449,13162.14,4479.69,-5124.24,10704.33,28017.91,-2011.06,6194.26,23205.47
1051723.7489,13209.44,4633.71,-5054.81,10700.66,28321.79,-1730.97,7305.0,23493.96
1051723.7529,13198.76,4680.87,-5028.2,10717.39,28103.5,-1921.94,6698.61,23306.61
1051723.7569,13192.8,4575.87,-5073.88,10744.48,27736.33,-2226.54,5380.96,22999.48
1051723.7609,13167.38,4509.59,-5118.18,10717.44,27963.69,-2007.34,6024.6,23183.97
1051723.7649,13198.23,4657.22,-5059.67,10713.77,28332.71,-1726.87,7278.01,23447.99
1051723.7689,13208.92,4731.23,-5034.73,10716.44,28184.99,-1858.43,6983.57,23340.23
1051723.7729,13189.98,4640.01,-5073.4,10727.5,27737.91,-2188.78,5480.24,23045.07
1051723.7769,13178.54,4568.58,-5121.09,10706.33,27899.7,-2013.83,5775.02,23195.32
1051723.7809,13190.46,4684.5,-5058.1,10720.78,28265.53,-1775.36,7058.81,23351.96
1051723.7849,13195.71,4803.85,-4998.59,10748.2,28217.7,-1811.03,7147.69,23321.3
1051723.7889,13213.59,4763.17,-5019.05,10776.62,27781.44,-2159.12,5692.91,22994.57
1051723.7929,13202.38,4646.35,-5104.3,10748.2,27827.46,-2103.71,5578.9,23056.84
1051723.7969,13172.82,4726.22,-5081.99,10717.68,28226.09,-1794.1,6916.19,23279.53
1051723.8009,13176.11,4849.77,-5020.19,10731.32,28271.87,-1681.52,7277.2,23442.94
1051723.8049,13196.04,4820.59,-5040.12,10740.47,27797.75,-2084.4,5848.41,23069.34
1051723.8089,13172.68,4720.07,-5087.66,10761.64,27704.53,-2188.78,5330.37,22879.89
1051723.8129,13193.9,4793.12,-5059.24,10773.09,28102.93,-1836.87,6612.02,23188.02
1051723.8169,13208.06,4917.86,-5022.14,10754.44,28278.54,-1715.8,7369.04,23311.86
1051723.8209,13202.14,4899.88,-5042.7,10739.8,27898.36,-2060.99,6167.51,22984.17
1051723.8249,13202.14,4802.13,-5057.96,10785.39,27717.02,-2186.87,5303.57,22846.42
1051723.8289,13184.26,4807.76,-5068.02,10764.36,28053.0,-1887.75,6402.4,23129.85
1051723.8329,13182.59,4944.18,-5021.19,10749.77,28307.87,-1689.01,7370.95,23335.84
1051723.8369,13211.16,4980.23,-4991.68,10788.68,28001.5,-1950.84,6445.93,23093.99
1051723.8409,13187.17,4837.66,-5065.78,10787.39,27671.86,-2222.82,5251.93,22823.96
1051723.8449,13188.79,4832.7,-5081.89,10775.95,27995.16,-1915.07,6179.71,23126.99
1051723.8489,13190.94,4971.27,-5031.25,10743.57,28325.56,-1648.95,7318.31,23405.6
1051723.8529,13205.2,5020.19,-5009.7,10756.16,28116.85,-1868.53,6765.99,23172.76
1051723.8568,13168.86,4892.11,-5071.83,10758.07,27751.54,-2139.71,5429.03,22914.08
1051723.8608,13113.17,4793.79,-5145.26,10710.67,27939.51,-1953.22,5949.64,23089.89
1051723.8648,13182.74,4971.36,-5045.7,10754.21,28306.92,-1668.31,7211.4,23347.62
1051723.8688,13205.77,5038.69,-5025.1,10750.63,28191.52,-1777.32,6985.71,23258.69
1051723.8728,13170.24,4935.69,-5067.44,10763.46,27769.0,-2147.48,5547.43,22844.22
1051723.8768,13142.83,4846.72,-5125.09,10742.38,27909.33,-2017.4,5786.66,22961.33
1051723.8808,13154.79,4966.35,-5080.65,10738.9,28257.37,-1710.03,7057.95,23281.53
1051723.8848,13181.26,5072.26,-5034.3,10728.89,28203.78,-1747.75,7138.4,23261.22
1051723.8888,13161.33,4982.76,-5063.82,10738.56,27782.21,-2126.98,5674.51,22904.45
1051723.8928,13133.58,4874.85,-5111.31,10759.83,27813.63,-2076.2,5482.48,22939.97
1051723.8968,13163.71,4965.02,-5087.95,10748.05,28205.97,-1753.76,6829.36,23241.71
1051723.9008,13206.34,5109.55,-5017.71,10761.12,28298.48,-1689.48,7308.39,23333.74
1051723.9048,13218.36,5097.82,-4997.64,10807.32,27896.31,-2009.73,5985.64,23014.88
1051723.9088,13121.56,4897.4,-5128.29,10749.25,27715.11,-2157.69,5338.72,22820.28
1051723.9128,13126.18,4951.43,-5113.27,10736.04,28116.32,-1834.01,6612.97,23126.56
1051723.9168,13164.24,5090.9,-5056.81,10731.36,28302.67,-1652.29,7390.4,23344.9
1051723.9208,13190.94,5101.49,-5036.45,10775.04,27950.24,-1946.93,6277.47,23055.7
1051723.9248,13139.11,4935.6,-5117.85,10765.36,27705.01,-2163.08,5335.62,22806.93
1051723.9288,13130.57,4947.71,-5127.53,10725.36,28067.26,-1861.57,6411.93,23105.34
1051723.9328,13158.51,5113.13,-5048.18,10747.91,28328.8,-1612.09,7412.34,23358.68
1051723.9368,13160.42,5126.52,-5029.97,10779.67,28038.74,-1869.82,6565.86,23106.96
1051723.9408,13163.71,5011.13,-5084.56,10781.29,27723.74,-2113.87,5375.77,22865.2
1051723.9448,13141.06,4973.36,-5122.71,10750.91,28002.55,-1894.28,6212.9,23038.44
1051723.9488,13124.85,5072.83,-5095.1,10709.29,28263.0,-1700.59,7315.45,23219.64
1051723.9528,13152.93,5145.55,-5054.47,10749.01,28073.93,-1850.8,6800.08,23091.18
1051723.9568,13150.46,5038.79,-5094.67,10779.1,27698.19,-2152.11,5443.29,22765.78
1051723.9608,13129.76,4965.21,-5143.83,10749.01,27893.64,-1962.9,5954.46,22948.22
1051723.9648,13148.26,5107.55,-5073.83,10751.2,28270.63,-1641.99,7248.64,23321.2
1051723.9688,13183.64,5196.76,-5035.45,10761.12,28141.31,-1764.25,7057.62,23183.25
1051723.9728,13167.19,5089.33,-5088.23,10764.31,27736.48,-2127.41,5614.52,22785.9
1051723.9768,13116.55,4972.84,-5145.84,10758.59,27865.17,-2036.48,5810.45,22839.88
1051723.9808,13141.16,5103.02,-5080.56,10764.27,28218.8,-1728.58,7090.52,23154.83
1051723.9847,13166.95,5202.91,-5046.03,10760.88,28171.26,-1742.12,7207.63,23180.3
1051723.9887,13166.67,5138.45,-5062.68,10790.25,27766.18,-2094.17,5798.77,22836.4
1051723.9927,13164.81,5041.08,-5091.72,10818.01,27784.92,-2060.84,5540.32,22835.02
1051723.9967,13110.26,5053.0,-5114.37,10742.0,28118.28,-1796.58,6806.33,23083.31
1051724.0007,13152.55,5203.06,-5050.18,10757.73,28232.01,-1689.15,7349.83,23219.97
1051724.0047,13176.01,5187.42,-5054.67,10781.19,27818.97,-2054.79,6015.21,22813.85
1051724.0087,13156.56,5045.46,-5123.47,10767.6,27692.04,-2164.41,5393.46,22681.86
1051724.0127,13158.37,5098.34,-5093.43,10778.62,28082.28,-1825.76,6625.8,23015.03
1051724.0167,13163.71,5213.12,-5053.23,10763.07,28279.64,-1638.89,7445.81,23239.38
1051724.0207,13171.87,5200.82,-5049.9,10785.2,27923.3,-1964.28,6331.73,22908.12
1051724.0247,13151.98,5067.02,-5113.41,10784.82,27684.22,-2145.2,5376.29,22688.58
1051724.0287,13159.71,5103.25,-5091.38,10790.11,28066.21,-1806.12,6479.03,23030.09
1051724.0327,13184.69,5237.39,-5024.1,10803.51,28311.64,-1640.56,7469.7,23176.86
1051724.0367,13232.66,5284.12,-4979.94,10864.31,28024.1,-1866.44,6628.08,22960.0
1051724.0407,13148.69,5102.35,-5080.32,10833.22,27679.97,-2143.53,5396.51,22672.37
1051724.0447,13109.35,5028.92,-5164.05,10745.43,27979.0,-1906.11,6240.03,22911.65
1051724.0487,13154.41,5192.28,-5082.18,10752.35,28353.03,-1572.66,7474.42,23299.98
1051724.0527,13132.0,5231.19,-5065.11,10744.38,28115.66,-1801.11,6903.41,23038.58
1051724.0567,13120.8,5115.7,-5104.97,10785.39,27699.0,-2156.78,5448.82,22650.67
1051724.0607,13147.26,5073.93,-5111.5,10825.11,27880.82,-2028.94,5913.02,22700.46
1051724.0647,13147.83,5190.85,-5065.54,10807.04,28231.86,-1732.4,7192.18,23025.09
1051724.0687,13170.01,5283.64,-5014.04,10838.75,28170.11,-1784.28,7095.62,23018.32
1051724.0727,13134.0,5161.29,-5076.22,10823.3,27710.82,-2164.79,5611.09,22599.03
1051724.0767,13097.1,5035.5,-5162.43,10782.29,27789.5,-2074.05,5711.56,22686.77
1051724.0807,13151.08,5185.18,-5070.31,10829.59,28220.7,-1692.96,7090.47,23110.58
1051724.0847,13150.03,5267.33,-5048.23,10805.42,28230.1,-1715.99,7289.55,23105.67
1051724.0887,13143.78,5192.57,-5080.56,10820.2,27784.4,-2071.09,5859.42,22717.53
1051724.0927,13107.11,5059.62,-5151.27,10817.0,27764.47,-2090.17,5562.21,22663.55
1051724.0967,13102.91,5132.49,-5119.09,10799.46,28165.77,-1730.97,6887.91,23044.97
1051724.1007,13130.71,5256.46,-5064.77,10797.64,28273.82,-1635.36,7422.11,23169.19
1051724.1047,13146.07,5233.81,-5067.78,10828.93,27865.7,-1976.87,6138.37,22812.04
1051724.1087,13117.36,5096.53,-5138.59,10834.22,27726.51,-2073.96,5487.63,22688.58
1051724.1126,13112.21,5139.26,-5120.47,10834.41,28132.39,-1752.85,6747.01,23011.73
1051724.1166,13108.78,5250.98,-5084.75,10810.61,28299.86,-1596.59,7536.51,23217.39
1051724.1206,13128.33,5250.17,-5079.84,10824.87,27957.3,-1903.15,6439.07,22918.7
1051724.1246,13126.57,5128.05,-5122.95,10849.48,27719.79,-2083.3,5494.36,22709.04
1051724.1286,13090.04,5101.59,-5156.52,10810.33,28033.64,-1879.98,6501.63,22828.53
1051724.1326,13127.42,5251.55,-5094.81,10806.13,28280.45,-1648.04,7442.52,23117.12
1051724.1366,13140.97,5288.32,-5063.49,10848.95,27997.21,-1872.64,6634.86,22889.09
1051724.1406,13102.82,5149.03,-5118.99,10885.57,27660.09,-2196.98,5411.58,22478.63
1051724.1446,13104.77,5122.09,-5135.11,10878.71,27968.17,-1906.44,6229.45,22794.44
1051724.1486,13121.89,5257.18,-5074.98,10859.92,28272.68,-1653.53,7379.63,23089.75
1051724.1526,13153.22,5320.84,-5039.31,10885.29,28094.39,-1806.12,6939.32,22942.93
1051724.1566,13112.07,5192.57,-5097.01,10891.58,27685.55,-2157.88,5543.04,22506.67
1051724.1606,13077.55,5098.53,-5161.86,10860.49,27872.47,-1997.52,5981.97,22673.99
1051724.1646,13107.4,5232.86,-5098.06,10861.35,28248.41,-1662.83,7264.76,23065.38
1051724.1686,13159.94,5348.64,-5027.72,10900.36,28200.34,-1709.8,7215.07,23040.2
1051724.1726,13151.03,5251.46,-5072.55,10910.8,27756.07,-2097.61,5749.42,22587.21
1051724.1766,13083.41,5108.93,-5161.1,10874.65,27805.81,-2034.14,5779.6,22633.65
1051724.1806,13117.03,5234.77,-5090.57,10887.58,28229.19,-1658.01,7149.6,23078.83
1051724.1846,13115.41,5320.98,-5059.2,10878.47,28241.21,-1661.49,7417.58,23086.6
1051724.1886,13116.98,5253.17,-5093.0,10886.43,27799.8,-2036.57,5990.6,22642.42
1051724.1926,13095.9,5116.56,-5171.49,10873.94,27762.08,-2046.06,5660.49,22613.81
1051724.1966,13126.47,5227.8,-5098.25,10912.13,28167.63,-1655.34,6936.98,23086.03
1051724.2006,13124.9,5340.05,-5048.04,10913.52,28271.39,-1610.23,7489.59,23124.98
1051724.2046,13118.55,5285.65,-5085.18,10891.58,27852.82,-1977.35,6207.75,22702.6
1051724.2086,13098.96,5155.8,-5130.1,10923.1,27735.19,-2057.7,5560.64,22602.13
1051724.2126,13096.0,5182.22,-5135.2,10896.35,28152.56,-1704.31,6807.52,23010.64
1051724.2166,13128.09,5318.83,-5070.93,10891.49,28320.22,-1644.95,7560.87,23016.41
1051724.2206,13100.39,5289.36,-5086.18,10900.21,27953.77,-1993.89,6472.02,22591.31
1051724.2246,13064.34,5152.18,-5162.05,10892.2,27706.53,-2156.59,5450.68,22413.92
1051724.2286,13077.45,5165.43,-5151.08,10900.55,28040.84,-1834.44,6411.98,22784.38
1051724.2326,13114.5,5319.88,-5072.36,10920.19,28333.67,-1612.52,7505.89,23015.84
1051724.2366,13165.09,5367.42,-5039.79,10950.95,28077.03,-1842.4,6769.94,22763.54
1051724.2405,13124.52,5214.17,-5115.03,10938.55,27730.75,-2122.93,5509.14,22412.87
1051724.2445,13051.7,5132.15,-5173.25,10909.22,27984.43,-1892.19,6228.4,22662.98
1051724.2485,13094.86,5288.55,-5092.96,10925.72,28325.61,-1589.97,7434.18,23026.18
1051724.2525,13141.54,5377.72,-5038.31,10959.58,28171.49,-1738.83,7054.19,22841.22
1051724.2565,13117.08,5248.02,-5093.77,10972.88,27777.29,-2041.77,5639.36,22493.32
1051724.2605,13088.56,5156.76,-5151.56,10943.46,27938.04,-1885.7,6024.31,22643.14
1051724.2645,13116.03,5284.02,-5093.43,10944.51,28295.71,-1626.68,7299.95,22924.62
1051724.2685,13125.9,5366.09,-5055.71,10961.68,28242.83,-1688.91,7274.68,22894.29
1051724.2725,13126.28,5282.4,-5083.66,10983.85,27835.56,-1986.5,5859.76,22588.11
1051724.2765,13081.12,5149.17,-5157.33,10964.16,27878.57,-1920.08,5844.31,22643.71
1051724.2805,13103.39,5267.48,-5094.0,10972.45,28283.69,-1608.56,7194.09,22964.86
1051724.2845,13138.72,5390.36,-5037.17,10972.74,28355.74,-1551.72,7544.42,23084.79
1051724.2885,13116.55,5309.96,-5076.93,10983.42,27877.52,-1986.6,6047.54,22532.99
1051724.2925,13098.15,5182.79,-5143.6,10981.75,27764.28,-2073.67,5562.69,22372.3
1051724.2965,13132.05,5271.58,-5107.59,10981.27,28153.47,-1754.19,6860.92,22736.22
1051724.3005,13149.88,5404.43,-5041.12,10991.48,28298.29,-1629.21,7488.59,22904.11
1051724.3045,13152.41,5371.05,-5037.17,11026.72,27894.26,-1945.59,6238.94,22544.48
1051724.3085,13142.83,5243.92,-5086.37,11038.64,27744.25,-2073.72,5515.29,22357.42
1051724.3125,13169.24,5301.29,-5046.7,11065.44,28139.88,-1723.53,6732.89,22762.83
1051724.3165,13205.05,5445.91,-4973.22,11072.83,28325.04,-1559.45,7533.98,22961.76
1051724.3205,13232.66,5451.39,-4959.77,11093.81,28013.23,-1841.02,6575.25,22638.66
1051724.3245,13199.9,5311.87,-5016.66,11110.64,27745.73,-2052.5,5528.02,22360.28
1051724.3285,13186.27,5300.43,-5031.59,11101.39,28065.16,-1745.99,6482.32,22721.67
1051724.3325,13246.68,5470.94,-4926.16,11151.51,28384.02,-1473.38,7606.51,23062.99
1051724.3365,13276.2,5515.58,-4892.87,11174.87,28111.89,-1719.14,6867.6,22758.96
1051724.3405,13256.31,5404.14,-4933.45,11185.84,27744.44,-2061.7,5553.82,22277.98
1051724.3445,13232.52,5346.97,-4975.65,11158.56,27996.97,-1851.18,6250.29,22521.5
1051724.3485,13287.21,5503.89,-4895.64,11176.16,28321.6,-1549.67,7446.0,22917.94
1051724.3525,13343.24,5591.82,-4841.76,11219.17,28159.1,-1693.34,7074.36,22780.85
1051724.3565,13376.19,5520.77,-4840.8,11286.45,27765.33,-2017.5,5649.62,22380.4
1051724.3605,13313.3,5400.9,-4912.19,11258.41,27910.38,-1896.43,6018.93,22503.52
1051724.3645,13352.11,5544.28,-4830.5,11274.39,28304.48,-1581.1,7327.89,22875.98
1051724.3684,13380.53,5643.75,-4768.8,11306.19,28225.95,-1649.24,7302.0,22812.56
1051724.3724,13373.28,5552.58,-4807.38,11316.87,27776.67,-2043.06,5797.05,22325.18
1051724.3764,13347.77,5433.75,-4877.66,11298.09,27861.6,-1948.55,5815.65,22405.2
1051724.3804,13351.78,5521.2,-4843.0,11279.78,28255.7,-1593.11,7152.61,22845.75
1051724.3844,13367.89,5616.47,-4802.99,11274.2,28282.22,-1570.89,7475.76,22896.67
1051724.3884,13369.51,5559.25,-4829.36,11281.73,27852.35,-1952.17,6077.53,22434.9
1051724.3924,13347.77,5421.54,-4911.66,11255.31,27793.55,-2004.24,5667.64,22340.63
1051724.3964,13343.34,5474.38,-4897.45,11234.09,28178.7,-1666.64,6944.94,22752.72
1051724.4004,13352.78,5585.34,-4848.34,11228.94,28325.27,-1528.69,7580.81,22956.04
1051724.4044,13349.68,5541.99,-4867.32,11230.37,27943.57,-1866.77,6367.92,22521.45
1051724.4084,13261.94,5335.95,-4995.44,11169.86,27736.95,-2046.44,5571.08,22285.85
1051724.4124,13245.63,5354.02,-4992.34,11159.18,28097.92,-1723.96,6740.86,22656.87
1051724.4164,13271.62,5489.06,-4931.74,11159.33,28307.92,-1551.2,7607.08,22884.99
1051724.4204,13270.81,5477.33,-4946.8,11152.46,27996.45,-1789.19,6625.41,22666.22
1051724.4244,13199.76,5283.88,-5068.06,11092.71,27687.46,-2055.03,5528.45,22297.53
1051724.4284,13169.19,5253.03,-5099.25,11057.0,28011.66,-1796.67,6499.58,22560.03
1051724.4324,13178.4,5383.44,-5042.89,11043.31,28300.96,-1583.86,7570.32,22809.32
1051724.4364,13171.25,5385.78,-5058.81,11024.76,28045.85,-1808.41,6892.68,22537.71
1051724.4404,13099.91,5199.24,-5170.82,10981.51,27669.0,-2113.96,5597.83,22169.35
1051724.4444,13075.26,5134.77,-5212.21,10961.01,27929.45,-1879.12,6251.19,22433.9
1051724.4484,13086.7,5261.04,-5147.41,10963.87,28299.1,-1572.61,7517.62,22820.71
1051724.4524,13101.58,5309.68,-5132.2,10960.06,28134.21,-1682.52,7187.42,22748.0
1051724.4564,13054.52,5165.53,-5211.4,10938.74,27690.7,-2054.88,5705.45,22267.44
1051724.4604,13031.77,5077.03,-5258.99,10932.45,27861.26,-1914.6,6028.46,22412.3
1051724.4644,13051.08,5194.76,-5200.72,10925.06,28233.29,-1622.82,7339.72,22763.02
1051724.4684,13074.4,5282.69,-5161.05,10928.87,28220.8,-1645.76,7449.44,22765.07
1051724.4724,13055.14,5188.37,-5199.0,10938.03,27778.34,-1997.33,5966.38,22341.68
1051724.4764,13034.35,5078.32,-5249.6,10939.65,27767.14,-1944.26,5778.36,22391.89
1051724.4804,13037.92,5169.58,-5205.35,10941.03,28180.17,-1614.67,7152.37,22790.58
1051724.4844,13063.19,5272.34,-5163.48,10936.45,28238.25,-1562.21,7535.17,22900.54
1051724.4884,13050.08,5197.57,-5206.06,10930.49,27790.45,-1995.66,6139.71,22329.14
1051724.4924,13023.33,5061.72,-5266.0,10940.12,27729.04,-2054.79,5693.82,22207.69
1051724.4963,13033.2,5127.62,-5231.71,10938.98,28130.53,-1677.23,6952.43,22708.7
1051724.5003,13044.41,5236.58,-5189.04,10925.44,28268.96,-1563.88,7607.65,22874.98
1051724.5043,13059.76,5213.88,-5193.66,10946.89,27873.04,-1945.59,6391.86,22385.74
1051724.5083,13026.72,5079.75,-5254.22,10960.25,27701.33,-2073.34,5608.8,22196.01
1051724.5123,12994.82,5082.04,-5267.95,10926.44,28047.04,-1765.54,6742.14,22575.81
1051724.5163,13030.2,5219.89,-5206.59,10914.57,28284.36,-1561.02,7645.27,22854.9
1051724.5203,13040.07,5222.89,-5200.58,10937.17,27975.8,-1811.36,6714.87,22573.76
1051724.5243,13017.89,5081.99,-5263.42,10950.23,27684.41,-2046.39,5619.43,22247.27
1051724.5283,13017.56,5072.74,-5273.91,10944.51,28024.87,-1755.09,6564.33,22572.04
1051724.5323,13039.97,5211.45,-5206.87,10943.51,28357.99,-1446.2,7716.08,23001.24
1051724.5363,13045.31,5239.73,-5189.85,10955.05,28092.77,-1691.87,7015.23,22711.95
1051724.5403,13020.28,5100.39,-5258.37,10941.75,27710.2,-2064.47,5697.92,22191.57
1051724.5443,13005.59,5044.56,-5289.7,10937.02,27977.37,-1812.12,6370.35,22486.59
1051724.5483,13021.14,5170.2,-5230.14,10935.64,28338.34,-1494.17,7625.06,22902.78
1051724.5523,13054.18,5244.02,-5190.9,10951.38,28149.56,-1673.56,7262.52,22673.28
1051724.5563,13050.22,5142.83,-5228.62,10965.78,27698.71,-2002.67,5756.62,22276.69
1051724.5603,12995.58,5021.0,-5304.19,10926.92,27834.66,-1939.15,5985.36,22305.92
1051724.5643,13012.27,5132.53,-5253.17,10918.52,28247.26,-1608.66,7356.98,22708.18
1051724.5683,13017.08,5204.96,-5226.9,10910.46,28215.79,-1630.64,7432.6,22731.12
1051724.5723,13041.83,5156.66,-5225.75,10960.01,27818.11,-1924.75,6030.94,22383.88
1051724.5763,12995.91,5016.04,-5309.53,10931.68,27817.68,-1929.28,5868.44,22350.22
1051724.5803,13001.11,5099.15,-5273.1,10930.16,28206.54,-1633.36,7185.75,22673.8
1051724.5843,13019.61,5199.67,-5231.29,10913.61,28277.07,-1583.0,7593.82,22771.27
1051724.5883,13020.66,5143.21,-5243.97,10935.21,27860.93,-1915.74,6230.64,22394.42
1051724.5923,12997.1,5005.17,-5307.48,10940.93,27745.68,-2008.15,5708.41,22206.98
1051724.5963,12999.54,5055.71,-5287.46,10928.06,28164.44,-1669.6,6988.72,22640.85
1051724.6003,12998.39,5164.34,-5244.16,10914.85,28322.84,-1546.48,7665.83,22804.93
1051724.6043,13011.65,5152.27,-5243.45,10928.16,27946.57,-1893.52,6505.2,22354.89
1051724.6083,12974.55,4995.39,-5327.27,10914.28,27738.62,-2046.78,5664.25,22161.39
1051724.6123,12981.13,5016.14,-5320.98,10911.75,28140.98,-1682.71,6848.15,22610.86
1051724.6163,13001.3,5152.8,-5246.59,10919.72,28359.8,-1487.02,7728.05,22879.65
1051724.6203,12995.2,5139.78,-5251.46,10915.33,28019.43,-1802.64,6753.97,22489.46
1051724.6244,12985.95,5010.03,-5307.53,10927.2,27704.43,-2059.56,5599.59,22134.59
1051724.6284,12977.51,4990.72,-5319.17,10922.24,28018.62,-1776.98,6521.37,22474.96
1051724.6324,12991.86,5114.08,-5258.75,10914.47,28336.86,-1528.6,7626.82,22792.39
1051724.6364,13019.37,5160.95,-5235.05,10926.53,28114.61,-1721.43,7055.47,22581.01
1051724.6404,12995.05,5034.26,-5290.22,10932.16,27751.02,-2035.43,5749.56,22162.92
1051724.6444,12993.24,4987.19,-5307.63,10937.12,28013.47,-1811.5,6372.83,22399.95
1051724.6484,12995.05,5093.53,-5267.14,10915.61,28340.15,-1526.69,7580.52,22783.57
1051724.6524,13018.75,5163.96,-5232.91,10934.97,28193.48,-1658.96,7296.52,22643.52
1051724.6564,13014.37,5067.97,-5263.0,10959.44,27773.57,-1998.66,5856.42,22214.56
1051724.6604,12979.32,4954.2,-5330.13,10931.78,27893.59,-1878.69,6097.22,22342.49
1051724.6644,12993.43,5064.15,-5280.35,10917.81,28305.87,-1564.5,7455.45,22718.81
1051724.6684,12994.72,5139.64,-5246.59,10914.61,28263.81,-1611.9,7529.16,22664.36
1051724.6724,13023.0,5093.96,-5234.81,10973.6,27805.33,-1968.86,6036.57,22255.14
1051724.6764,13011.98,4986.81,-5282.83,10985.47,27816.97,-1927.28,5867.53,22289.95
1051724.6804,13012.6,5058.0,-5257.89,10972.22,28199.01,-1620.58,7167.34,22656.4
1051724.6844,13037.16,5171.49,-5206.54,10980.51,28291.37,-1570.42,7650.76,22732.64
1051724.6882,13051.03,5142.69,-5203.06,11001.54,27869.28,-1926.33,6311.61,22288.18
1051724.6922,13014.89,4996.73,-5272.72,10989.14,27755.45,-1992.32,5732.63,22200.01
1051724.6962,12993.15,5032.21,-5268.05,10958.1,28147.32,-1670.07,6988.43,22590.54
1051724.7002,13022.0,5160.43,-5206.54,10962.39,28308.25,-1529.26,7684.52,22784.95
1051724.7042,13038.68,5143.83,-5207.97,10984.76,27918.1,-1856.14,6523.75,22374.11
1051724.7082,13022.85,5003.5,-5276.11,10987.9,27703.48,-2058.6,5663.06,22068.22
1051724.7122,13008.07,5006.41,-5289.17,10962.3,28092.15,-1750.71,6765.08,22459.65
1051724.7162,13031.25,5140.59,-5223.61,10967.07,28331.71,-1553.34,7680.7,22718.96
1051724.7202,13048.51,5159.19,-5205.16,10992.58,28025.82,-1811.7,6807.76,22414.54
1051724.7242,13016.99,5012.08,-5275.44,10986.47,27713.83,-2046.2,5665.35,22120.53
1051724.7282,13002.3,4986.48,-5290.37,10980.66,28040.32,-1734.78,6569.34,22508.19
1051724.7322,13024.62,5122.81,-5227.57,10965.01,28342.77,-1460.08,7666.49,22893.96
1051724.7362,13039.64,5157.28,-5215.45,10966.45,28110.41,-1720.86,7100.96,22544.63
1051724.7402,13014.22,5024.39,-5274.87,10970.64,27722.41,-2065.47,5748.65,22093.54
1051724.7442,13028.29,4998.64,-5265.09,11012.51,27967.27,-1823.33,6298.64,22382.26
1051724.7482,13033.15,5113.51,-5217.51,10996.63,28280.21,-1587.44,7489.49,22660.07
1051724.7521,13050.75,5171.35,-5204.11,10985.28,28166.68,-1697.02,7311.44,22555.97
1051724.7561,13034.25,5065.01,-5249.83,10986.38,27744.58,-2037.62,5880.83,22144.65
1051724.7601,13005.45,4964.73,-5294.9,10982.71,27844.96,-1915.55,6010.34,22299.15
1051724.7641,13019.04,5076.08,-5247.74,10971.5,28235.96,-1564.07,7355.5,22758.82
1051724.7681,13028.91,5159.66,-5216.93,10968.35,28253.89,-1599.03,7543.85,22704.75
1051724.7721,13035.87,5091.91,-5228.14,11002.02,27809.34,-1961.33,6093.65,22265.01
1051724.7761,13007.98,4972.12,-5282.88,11001.68,27778.3,-1964.09,5832.1,22224.33
1051724.7801,13027.96,5058.29,-5242.87,10996.63,28188.42,-1640.32,7165.48,22611.57
1051724.7841,13049.99,5173.02,-5185.32,11010.89,28310.35,-1559.78,7698.73,22736.84
1051724.7881,13054.23,5124.9,-5207.83,11018.95,27857.59,-1943.68,6324.91,22271.16
1051724.7921,13035.01,4997.21,-5271.05,11004.59,27733.23,-2006.39,5730.73,22172.41
1051724.7961,13027.29,5040.22,-5264.09,10969.02,28127.05,-1666.12,6989.48,22602.85
1051724.8001,13039.02,5162.19,-5201.2,10978.6,28352.69,-1507.95,7775.12,22824.81
1051724.8041,13056.28,5147.03,-5196.76,11007.17,27974.28,-1821.95,6645.68,22444.78
1051724.8081,13032.87,5005.03,-5260.04,11012.94,27728.37,-1997.14,5695.82,22192.34
1051724.8121,13016.13,5001.26,-5272.72,10994.86,28091.86,-1688.34,6793.45,22560.07
1051724.8161,13046.22,5143.69,-5202.72,10998.3,28344.68,-1493.74,7780.46,22807.46
1051724.8201,13069.44,5172.3,-5183.65,11017.13,28065.64,-1697.73,6976.65,22581.68
1051724.8241,13022.57,5010.03,-5274.25,10987.95,27713.54,-2038.62,5738.88,22086.19
1051724.8281,12995.77,4965.12,-5304.05,10970.69,27995.97,-1827.91,6544.07,22305.78
1051724.8321,13033.92,5116.13,-5221.18,10987.57,28300.91,-1515.05,7631.35,22742.23
1051724.8361,13052.08,5160.71,-5196.43,10998.39,28098.78,-1694.49,7159.57,22553.11
1051724.8401,13025.81,5034.78,-5250.74,11008.31,27684.55,-2052.45,5763.25,22081.52
1051724.8441,13011.03,4970.36,-5290.22,10996.01,27919.25,-1882.12,6306.46,22241.98
1051724.8481,13034.11,5104.11,-5222.8,10985.8,28277.02,-1558.49,7569.17,22667.79
1051724.8521,13065.77,5187.23,-5180.26,11003.11,28209.36,-1631.12,7443.52,22607.04
1051724.8561,13029.62,5062.15,-5239.25,11001.92,27738.38,-2010.68,5942.77,22129.25
1051724.8601,12997.72,4950.33,-5301.09,10987.66,27832.7,-1905.87,6060.03,22237.45
1051724.8641,13014.08,5054.19,-5253.6,10978.6,28239.3,-1565.27,7404.57,22679.47
1051724.8681,13045.22,5154.8,-5207.06,10979.03,28243.45,-1567.79,7603.55,22702.17
1051724.8721,13033.34,5075.41,-5233.67,10997.3,27793.27,-1956.99,6167.27,22208.65
1051724.8761,13005.78,4949.62,-5302.05,10981.13,27784.73,-1941.4,5932.24,22203.31
1051724.88,13034.73,5051.14,-5240.97,10995.15,28213.27,-1577.52,7262.61,22655.11
1051724.884,13045.98,5154.18,-5202.2,10985.28,28298.67,-1512.81,7766.87,22751.38
1051724.888,13029.05,5096.58,-5228.0,10989.0,27865.32,-1873.73,6413.51,22328.95
1051724.892,12983.23,4936.79,-5316.59,10968.59,27727.65,-1985.74,5789.66,22149.85
1051724.896,12984.56,4975.46,-5307.25,10945.94,28113.75,-1677.56,7007.65,22506.91
1051724.9,13017.27,5115.7,-5231.86,10962.2,28294.61,-1513.86,7749.51,22753.62
1051724.904,13033.34,5111.17,-5220.94,10992.43,27950.24,-1838.78,6692.03,22313.55
1051724.908,13003.49,4970.03,-5286.6,10993.86,27703.57,-2042.82,5762.48,22017.2
1051724.912,12994.67,4969.41,-5298.95,10975.17,28053.57,-1739.26,6793.55,22402.96
1051724.916,13012.7,5097.82,-5248.26,10958.86,28297.62,-1536.37,7756.33,22684.29
1051724.92,13008.07,5101.59,-5243.73,10965.16,28007.42,-1778.32,6945.66,22414.26
1051724.924,12993.29,4974.08,-5290.75,10978.13,27698.71,-2033.81,5761.67,22063.4
1051724.928,13002.97,4959.63,-5301.29,10973.07,27996.92,-1764.39,6592.66,22371.87
1051724.932,12988.14,5056.43,-5278.78,10928.3,28266.77,-1552.63,7685.23,22659.02
1051724.936,13025.48,5131.87,-5225.75,10966.4,28111.51,-1689.77,7237.15,22517.73
1051724.94,13007.21,5007.46,-5280.02,10973.6,27692.7,-2028.04,5856.9,22070.22
1051724.944,12979.32,4923.11,-5329.13,10958.86,27891.93,-1856.95,6303.74,22252.94
1051724.948,13005.07,5058.0,-5252.55,10972.02,28254.23,-1557.54,7543.23,22630.46
1051724.952,13003.02,5117.75,-5227.9,10965.54,28163.15,-1646.76,7435.23,22553.59
1051724.956,12994.2,5018.04,-5269.86,10970.55,27757.55,-1983.17,6024.08,22127.92
1051724.96,12977.55,4917.29,-5324.13,10961.2,27847.2,-1843.98,6114.63,22324.18
1051724.964,12971.45,4999.3,-5298.9,10941.22,28214.31,-1562.6,7395.89,22654.11
1051724.968,12997.72,5097.01,-5259.13,10941.08,28212.98,-1617.24,7623.2,22566.46
1051724.972,13029.05,5058.19,-5247.16,10990.57,27809.58,-1945.21,6225.73,22160.58
1051724.976,12982.18,4914.71,-5322.22,10973.6,27771.05,-1952.51,5906.73,22131.83
1051724.98,12964.01,4966.16,-5313.92,10942.46,28156.57,-1621.39,7192.52,22556.07
1051724.984,12988.57,5086.47,-5261.09,10945.51,28268.01,-1538.23,7741.36,22689.58
1051724.988,13004.92,5058.72,-5261.56,10976.32,27852.4,-1886.08,6475.64,22247.94
1051724.992,12974.03,4913.47,-5331.61,10962.3,27705.58,-1979.4,5802.06,22112.42
1051724.996,12988.38,4966.74,-5302.76,10968.26,28135.06,-1589.73,7048.04,22627.17
1051725.0,13021.28,5100.63,-5242.44,10968.11,28332.67,-1467.7,7858.37,22754.96
1051725.004,13003.06,5071.12,-5260.9,10959.91,27956.35,-1847.79,6765.13,22250.27
1051725.0079,12979.27,4934.45,-5319.45,10963.35,27713.25,-2021.6,5789.66,22021.3
1051725.0119,12975.74,4934.07,-5330.04,10948.66,28044.47,-1695.44,6764.7,22448.49
1051725.0159,13029.48,5089.86,-5250.5,10968.83,28313.78,-1488.16,7768.49,22706.03
1051725.0199,13021.9,5087.76,-5251.6,10970.69,27979.57,-1772.21,6940.08,22363.38
1051725.0239,12986.42,4957.49,-5291.22,10995.58,27676.25,-2035.19,5740.26,21997.88
1051725.0279,12956.57,4902.74,-5340.1,10948.99,27962.21,-1782.32,6528.52,22312.5
1051725.0319,12988.38,5038.17,-5282.78,10932.16,28279.5,-1515.82,7667.16,22667.17
1051725.0359,13009.41,5090.09,-5250.74,10950.42,28103.88,-1678.66,7255.7,22452.79
1051725.0399,12983.47,4973.22,-5285.88,10979.32,27721.69,-1984.88,5899.95,22072.6
1051725.0439,12954.86,4891.25,-5342.77,10953.14,27891.64,-1834.87,6311.89,22231.01
1051725.0479,12981.8,5016.14,-5293.61,10941.89,28248.12,-1516.96,7528.54,22662.98
1051725.0519,13004.92,5101.63,-5253.27,10955.14,28190.09,-1583.67,7487.82,22570.85
1051725.0559,13003.02,5010.65,-5286.79,10970.88,27758.22,-1965.95,6067.18,22040.89
1051725.0599,12965.59,4887.15,-5348.97,10959.58,27807.53,-1894.33,6068.14,22118.9
1051725.0639,12989.95,4995.3,-5297.28,10949.28,28236.77,-1548.96,7422.07,22574.86
1051725.0679,13001.68,5098.06,-5246.74,10958.15,28281.41,-1499.46,7715.8,22694.07
1051725.0719,12994.2,5025.05,-5281.02,10958.82,27813.49,-1885.27,6269.69,22185.81
1051725.0759,12993.29,4919.43,-5318.45,10978.51,27800.85,-1893.14,5959.32,22111.8
1051725.0799,12985.33,4976.42,-5300.09,10959.1,28201.63,-1554.68,7241.82,22578.53
1051725.0839,12992.0,5077.51,-5263.76,10946.04,28281.64,-1483.87,7783.56,22697.69
1051725.0879,12989.09,5042.22,-5266.62,10973.65,27861.88,-1880.36,6496.72,22142.22
1051725.0919,12962.77,4898.31,-5340.39,10961.96,27711.63,-1990.03,5797.2,21995.12
1051725.0959,12966.59,4937.7,-5321.93,10954.05,28082.04,-1661.25,6932.83,22418.26
1051725.0999,13006.26,5079.32,-5251.69,10969.88,28306.2,-1494.5,7775.21,22635.65
1051725.1039,13028.72,5091.72,-5237.68,10994.77,27962.93,-1773.31,6763.6,22293.05
1051725.1079,13001.97,4952.34,-5296.8,10992.48,27706.58,-1951.69,5787.04,22040.8
1051725.1119,12977.08,4932.79,-5311.59,10970.55,28049.14,-1678.8,6783.3,22360.52
1051725.1159,13013.32,5081.42,-5239.44,10977.56,28317.84,-1466.47,7789.8,22651.15
1051725.1199,13018.99,5097.2,-5242.44,10973.79,28036.26,-1725.44,7030.92,22338.35
1051725.1239,12990.81,4954.62,-5319.31,10955.86,27668.38,-2030.75,5808.97,21905.62
1051725.1279,12978.51,4917.15,-5335.05,10957.62,27953.2,-1777.51,6556.23,22206.21
1051725.1319,13008.17,5057.48,-5266.48,10957.58,28292.95,-1489.45,7714.13,22621.06
1051725.1358,13031.67,5124.76,-5226.61,10979.84,28128.82,-1601.12,7308.44,22526.79
1051725.1398,13013.6,5014.37,-5262.23,10997.58,27705.48,-1963.66,5934.76,21985.72
1051725.1438,12978.89,4911.9,-5333.09,10958.43,27875.43,-1832.34,6364.87,22128.63
1051725.1478,12995.39,5023.86,-5292.56,10938.65,28227.9,-1500.89,7574.51,22611.67
1051725.1518,13038.45,5123.9,-5235.43,10964.35,28166.39,-1557.02,7507.95,22559.84
1051725.1558,13007.55,5015.23,-5280.92,10968.88,27723.89,-1970.1,6114.05,21962.55
1051725.1598,12977.08,4906.37,-5333.42,10968.26,27784.11,-1888.13,6134.18,22043.09
1051725.1638,12997.68,5005.55,-5296.56,10950.47,28152.09,-1551.34,7372.67,22510.44
1051725.1678,13014.37,5103.78,-5254.89,10950.23,28181.79,-1515.91,7647.56,22596.5
1051725.1718,13011.12,5041.89,-5269.1,10978.94,27770.43,-1860.24,6290.82,22117.09
1051725.1758,12983.47,4910.85,-5328.7,10976.41,27719.64,-1920.8,5936.81,21984.15
1051725.1798,13010.41,4993.25,-5286.5,10984.14,28136.83,-1570.89,7240.49,22457.98
1051725.1838,13025.91,5109.88,-5240.58,10971.02,28243.35,-1470.8,7791.66,22615.2
1051725.1878,13028.15,5065.73,-5258.51,10969.45,27826.03,-1828.15,6552.98,22147.56
1051725.1918,13010.31,4938.03,-5309.39,10976.03,27671.48,-1943.64,5869.01,21962.93
1051725.1958,13003.83,4970.74,-5296.8,10969.93,28037.98,-1609.9,7041.12,22395.42
1051725.1998,13035.25,5109.17,-5231.43,10970.45,28287.7,-1400.8,7871.34,22724.15
1051725.2038,13055.37,5114.99,-5221.03,10993.05,27968.46,-1709.6,6925.73,22302.2
1051725.2078,12993.53,4930.45,-5330.61,10953.76,27634.77,-1990.41,5846.6,21917.63
1051725.2118,12995.1,4937.41,-5319.31,10971.45,27964.55,-1689.05,6800.7,22282.22
1051725.2158,13016.37,5072.31,-5259.47,10955.86,28260.66,-1440.48,7838.92,22647.57
