TimeStamp,P3,P4,F3,F4,FP1,I1,I2,FP2
1389585.8355,4297.64,15430.4,36287.17,37403.59,25671.77,29357.68,15338.23,8151.2
1389585.8375,3611.09,15409.61,36278.2,37397.15,25672.68,29311.14,15256.22,8141.57
1389585.8395,2441.07,15238.1,36288.17,37416.37,25703.53,29232.31,14957.72,8168.84
1389585.8415,1655.15,15024.71,36323.55,37452.85,25751.26,29197.27,14653.16,8224.39
1389585.8435,1791.05,14942.22,36357.45,37481.84,25779.39,29216.72,14557.03,8263.45
1389585.8455,2556.56,14999.2,36371.9,37493.19,25780.97,29277.61,14690.54,8271.55
1389585.8475,3421.64,15131.09,36358.17,37473.25,25755.31,29320.67,14908.46,8246.8
1389585.8495,4170.8,15291.98,36326.13,37428.34,25704.82,29352.48,15150.69,8191.06
1389585.8515,4371.6,15410.47,36299.14,37390.0,25665.14,29358.34,15309.14,8147.96
1389585.8535,3933.81,15435.55,36291.75,37385.75,25657.9,29330.4,15302.85,8142.04
1389585.8555,2847.62,15316.25,36298.66,37414.75,25682.4,29256.63,15072.73,8171.37
1389585.8575,1837.16,15091.47,36320.88,37457.61,25724.18,29194.02,14754.82,8206.27
1389585.8595,1640.65,14948.23,36353.5,37495.57,25762.56,29190.4,14571.62,8225.97
1389585.8615,2267.65,14967.11,36378.1,37510.35,25781.06,29245.05,14620.35,8245.23
1389585.8635,3128.48,15090.85,36379.29,37503.2,25770.48,29312.9,14831.69,8247.76
1389585.8655,3975.49,15252.97,36358.65,37467.25,25736.19,29370.07,15089.51,8224.3
1389585.8675,4398.01,15401.22,36328.75,37423.38,25702.0,29387.81,15284.97,8192.49
1389585.8695,4172.75,15452.05,36309.68,37399.73,25688.75,29373.6,15337.66,8173.32
1389585.8715,3281.98,15376.9,36300.43,37408.79,25689.27,29299.26,15181.35,8167.74
1389585.8735,2106.81,15152.17,36309.25,37433.68,25715.97,29205.8,14858.3,8197.07
1389585.8755,1609.95,14971.88,36338.57,37476.5,25756.31,29181.05,14625.03,8237.65
1389585.8775,2005.24,14938.26,36366.56,37496.0,25774.29,29225.16,14601.52,8255.72
1389585.8795,2842.0,15025.76,36367.8,37480.55,25764.85,29287.29,14755.63,8245.99
1389585.8815,3685.33,15164.62,36341.81,37441.21,25730.99,29335.74,14976.79,8212.47
1389585.8835,4322.34,15341.71,36319.21,37411.17,25698.24,29373.03,15222.74,8179.47
1389585.8855,4303.69,15436.79,36301.62,37402.21,25683.17,29363.3,15344.96,8163.02
1389585.8875,3640.46,15410.71,36279.59,37402.78,25669.39,29305.27,15254.36,8141.8
1389585.8895,2431.35,15222.84,36280.54,37414.32,25688.08,29216.58,14956.43,8159.45
1389585.8915,1660.59,15016.94,36312.97,37469.25,25732.81,29172.38,14665.75,8205.56
1389585.8935,1763.3,14935.45,36356.17,37522.84,25770.48,29199.79,14566.57,8237.55
1389585.8955,2558.9,14996.15,36373.1,37522.84,25774.96,29262.83,14692.98,8242.27
1389585.8975,3393.84,15127.28,36360.51,37472.54,25751.26,29315.43,14919.66,8239.89
1389585.8995,4193.69,15305.38,36335.9,37430.05,25711.87,29362.87,15175.63,8213.0
1389585.9015,4366.21,15414.0,36299.42,37393.24,25674.44,29367.5,15319.4,8170.56
1389585.9035,3952.93,15429.55,36280.59,37383.23,25659.18,29332.98,15288.55,8146.33
1389585.9055,2843.57,15306.43,36287.26,37396.82,25679.88,29262.02,15067.01,8157.11
1389585.9075,1855.76,15091.8,36313.59,37422.85,25721.98,29200.27,14765.07,8207.04
1389585.9095,1629.02,14960.58,36349.01,37463.72,25761.56,29191.31,14588.64,8251.1
1389585.9115,2272.32,14978.32,36369.09,37484.94,25766.23,29248.05,14643.91,8248.76
1389585.9135,3105.93,15086.46,36356.69,37472.3,25746.06,29312.18,14839.13,8216.91
1389585.9155,3965.76,15250.83,36336.47,37445.98,25722.55,29368.17,15093.47,8195.4
1389585.9175,4371.41,15399.08,36305.81,37411.55,25690.8,29386.48,15307.91,8178.85
1389585.9195,4172.28,15452.91,36287.17,37396.86,25673.54,29370.36,15373.61,8168.51
1389585.9215,3283.12,15400.32,36292.51,37417.03,25691.27,29318.96,15233.66,8179.57
1389585.9235,2134.7,15190.65,36318.12,37453.8,25736.14,29245.43,14890.0,8216.72
1389585.9255,1601.08,14993.76,36341.62,37484.7,25767.81,29199.41,14613.87,8251.62
1389585.9275,1983.21,14937.55,36356.07,37499.05,25773.0,29212.76,14566.8,8259.96
1389585.9295,2802.99,15021.71,36352.78,37483.22,25749.35,29266.69,14730.26,8235.93
1389585.9315,3663.73,15169.43,36341.43,37457.23,25721.36,29331.12,14984.66,8198.07
1389585.9335,4301.02,15343.0,36312.16,37420.94,25683.55,29366.74,15227.94,8151.63
1389585.9355,4288.58,15420.06,36282.5,37392.0,25656.8,29361.06,15319.54,8129.55
1389585.9375,3637.84,15408.8,36269.19,37392.53,25652.22,29305.41,15231.28,8136.18
1389585.9395,2435.11,15227.89,36277.35,37407.97,25684.79,29221.78,14949.61,8174.85
1389585.9415,1667.79,15029.48,36311.25,37441.16,25734.33,29188.11,14675.48,8225.73
1389585.9435,1746.08,14932.78,36344.34,37478.02,25766.19,29195.69,14561.03,8255.67
1389585.9455,2547.22,15000.87,36359.31,37482.27,25767.23,29262.21,14687.97,8253.91
1389585.9475,3373.15,15122.75,36344.91,37447.84,25741.77,29317.14,14899.88,8226.54
1389585.9495,4177.33,15300.23,36320.12,37416.75,25702.15,29364.64,15156.03,8184.48
1389585.9515,4354.62,15406.85,36293.46,37387.14,25670.58,29374.79,15309.24,8150.29
1389585.9535,3974.63,15432.98,36279.83,37377.79,25662.95,29349.0,15313.67,8140.04
1389585.9555,2854.3,15304.14,36281.83,37386.56,25683.79,29280.05,15093.33,8168.03
1389585.9575,1881.79,15099.48,36311.34,37431.39,25729.09,29217.77,14781.67,8204.6
1389585.9595,1621.01,14954.43,36349.97,37479.26,25772.67,29207.9,14588.5,8236.08
1389585.9615,2281.38,14975.36,36364.94,37488.85,25777.58,29255.06,14639.81,8225.16
1389585.9635,3084.14,15076.26,36356.36,37464.24,25755.6,29315.24,14832.69,8199.5
1389585.9655,3962.66,15240.1,36333.85,37436.63,25714.97,29362.63,15074.68,8160.21
1389585.9675,4358.72,15380.0,36298.47,37405.02,25674.73,29382.33,15276.72,8139.09
1389585.9695,4202.46,15448.86,36286.02,37401.87,25660.28,29360.97,15345.0,8142.9
1389585.9715,3272.01,15368.61,36271.62,37401.16,25659.61,29286.05,15181.11,8150.29
1389585.9735,2140.81,15161.66,36285.45,37419.99,25695.99,29211.48,14867.69,8192.21
1389585.9755,1582.48,14971.07,36319.83,37458.85,25739.96,29184.3,14606.19,8239.27
1389585.9775,2005.01,14943.74,36354.69,37487.23,25762.23,29224.83,14587.83,8259.06
1389585.9795,2803.47,15028.1,36359.55,37479.98,25755.22,29283.67,14757.4,8253.29
1389585.9815,3690.86,15174.53,36340.29,37453.8,25723.51,29337.98,14990.95,8219.05
1389585.9835,4293.78,15337.33,36311.06,37407.02,25686.41,29359.2,15225.27,8179.52
1389585.9855,4314.14,15429.16,36290.51,37376.6,25668.77,29353.81,15347.29,8159.54
1389585.9875,3647.38,15410.09,36275.92,37375.6,25666.38,29311.28,15262.18,8152.53
1389585.9895,2485.47,15239.62,36284.26,37408.64,25691.13,29237.89,14962.91,8173.47
1389585.9915,1669.41,15033.15,36320.4,37464.81,25739.82,29199.84,14677.91,8220.63
1389585.9935,1775.88,14940.26,36361.03,37502.82,25778.06,29215.67,14569.81,8251.62
1389585.9955,2528.48,14996.44,36370.71,37492.04,25779.3,29261.02,14685.06,8238.51
1389585.9975,3395.61,15131.9,36367.09,37473.35,25759.56,29325.11,14911.84,8215.91
1389585.9995,4169.04,15309.19,36345.2,37443.31,25720.74,29364.4,15165.62,8182.29
1389586.0015,4377.17,15421.92,36309.39,37406.5,25680.5,29370.93,15322.88,8151.2
1389586.0035,3979.35,15448.76,36290.13,37393.77,25664.52,29346.52,15321.92,8143.47
1389586.0055,2887.2,15319.54,36290.08,37409.79,25678.54,29269.17,15085.75,8164.65
1389586.0075,1863.05,15097.24,36306.43,37435.15,25716.93,29205.33,14757.59,8197.69
1389586.0095,1628.26,14955.28,36344.72,37476.35,25764.09,29203.13,14566.38,8238.75
1389586.0115,2255.73,14976.12,36367.33,37488.89,25775.34,29251.82,14616.87,8242.56
1389586.0135,3085.42,15079.07,36365.89,37468.87,25756.41,29309.42,14815.0,8219.2
1389586.0155,3954.7,15258.03,36354.59,37440.21,25728.75,29374.79,15093.76,8201.93
1389586.0175,4390.43,15412.71,36332.66,37419.23,25700.95,29407.84,15318.92,8185.1
1389586.0195,4213.24,15473.56,36302.9,37400.49,25677.87,29385.43,15380.77,8154.54
1389586.0215,3304.05,15394.4,36286.26,37396.77,25678.64,29312.14,15198.95,8142.95
1389586.0235,2155.26,15188.12,36301.76,37427.57,25714.31,29239.09,14873.7,8194.16
1389586.0255,1600.55,14997.77,36338.76,37469.77,25760.22,29223.11,14620.69,8258.49
1389586.0275,1998.71,14966.2,36369.9,37491.14,25784.3,29260.78,14599.75,8279.42
1389586.0295,2803.14,15042.02,36372.28,37485.22,25779.15,29303.65,14750.77,8264.54
1389586.0315,3687.91,15197.56,36360.22,37467.63,25757.13,29339.32,14983.23,8240.51
1389586.0335,4301.26,15363.03,36332.66,37439.3,25720.17,29377.94,15223.41,8207.42
1389586.0355,4318.76,15445.62,36290.94,37396.86,25678.02,29370.41,15331.41,8168.84
1389586.0375,3652.14,15415.0,36269.1,37378.41,25663.05,29313.95,15245.01,8155.54
1389586.0395,2486.37,15240.72,36279.02,37392.19,25691.08,29228.36,14964.2,8179.76
1389586.0415,1659.2,15024.33,36308.58,37435.01,25730.52,29177.14,14671.66,8211.66
1389586.0435,1751.38,14939.74,36344.44,37486.84,25761.27,29191.07,14561.27,8239.65
1389586.0455,2506.07,14993.34,36359.7,37496.19,25765.71,29256.78,14674.9,8241.85
1389586.0475,3369.0,15121.94,36349.59,37471.44,25742.92,29315.43,14895.25,8219.39
1389586.0495,4135.9,15287.88,36328.46,37434.63,25710.78,29355.34,15143.49,8186.91
1389586.0515,4369.21,15415.81,36301.28,37399.25,25680.78,29365.69,15311.43,8162.17
1389586.0535,3967.24,15442.33,36283.83,37383.27,25666.96,29339.13,15310.43,8150.72
1389586.0555,2909.42,15331.46,36286.31,37402.06,25687.51,29269.13,15094.76,8165.41
1389586.0575,1881.08,15109.45,36310.49,37432.29,25731.23,29211.52,14781.14,8201.03
1389586.0595,1641.42,14962.63,36342.43,37473.49,25767.95,29204.23,14593.94,8225.16
1389586.0615,2232.79,14968.11,36360.79,37487.18,25773.24,29251.01,14631.8,8228.16
1389586.0635,3076.6,15077.07,36356.12,37474.88,25753.64,29305.46,14823.44,8214.43
1389586.0655,3920.51,15238.0,36339.48,37441.78,25720.6,29360.39,15082.22,8191.87
1389586.0675,4372.07,15387.25,36309.06,37400.73,25681.26,29382.8,15298.51,8165.22
1389586.0695,4171.8,15437.13,36279.59,37373.45,25656.61,29355.2,15342.76,8145.43
1389586.0715,3310.82,15376.43,36272.2,37389.24,25663.14,29293.35,15170.72,8146.72
1389586.0735,2142.38,15166.71,36287.84,37422.8,25700.91,29221.49,14851.14,8174.61
1389586.0755,1611.19,14988.0,36328.56,37477.78,25751.16,29198.41,14610.96,8218.96
1389586.0775,1967.57,14948.75,36360.74,37503.53,25780.11,29224.73,14574.72,8239.65
1389586.0795,2799.23,15039.3,36366.13,37490.75,25771.05,29286.34,14740.52,8230.35
1389586.0815,3654.77,15186.69,36357.22,37461.57,25744.01,29349.24,14983.94,8211.09
1389586.0835,4308.51,15353.25,36331.56,37423.9,25703.96,29382.71,15221.69,8186.96
1389586.0855,4301.41,15437.18,36299.04,37395.77,25671.63,29380.75,15336.47,8159.69
1389586.0875,3682.18,15417.53,36274.82,37382.42,25661.28,29327.83,15265.18,8143.86
1389586.0895,2502.16,15249.64,36288.5,37404.49,25697.52,29255.82,14992.29,8183.86
1389586.0915,1706.98,15036.87,36315.73,37438.21,25740.05,29200.61,14693.07,8234.98
1389586.0935,1749.75,14938.79,36349.63,37473.4,25770.76,29200.03,14573.62,8262.21
1389586.0955,2528.48,15000.68,36377.63,37497.43,25782.02,29275.09,14701.51,8265.97
1389586.0975,3364.99,15134.29,36379.15,37484.6,25765.8,29336.89,14922.81,8249.33
1389586.0995,4159.88,15300.23,36350.45,37447.55,25715.16,29368.21,15161.56,8202.27
1389586.1015,4356.15,15407.61,36305.1,37407.55,25663.81,29358.06,15298.18,8153.58
1389586.1035,3973.15,15426.21,36278.3,37391.95,25639.2,29322.44,15277.82,8127.26
1389586.1055,2888.16,15301.52,36274.49,37398.87,25655.89,29242.23,15053.89,8135.42
1389586.1075,1874.49,15088.32,36302.0,37441.45,25707.68,29177.81,14753.06,8181.57
1389586.1095,1599.22,14939.64,36329.08,37481.46,25752.98,29162.55,14567.38,8227.3
1389586.1115,2214.81,14955.47,36351.26,37490.9,25769.81,29216.58,14609.58,8248.33
1389586.1135,3052.71,15071.06,36352.26,37468.06,25755.74,29285.86,14803.36,8239.13
1389586.1155,3909.49,15232.52,36337.71,37438.11,25719.79,29345.66,15037.2,8207.04
1389586.1175,4346.42,15383.01,36308.72,37398.91,25682.6,29372.17,15249.16,8180.19
1389586.1195,4180.81,15441.23,36287.98,37382.85,25671.53,29358.77,15317.73,8170.56
1389586.1215,3323.75,15387.92,36283.12,37398.39,25683.45,29290.39,15184.31,8170.08
1389586.1235,2170.99,15188.65,36300.95,37431.53,25728.28,29225.5,14885.19,8206.65
1389586.1255,1620.01,15004.35,36330.75,37474.45,25767.19,29202.18,14632.27,8243.9
1389586.1275,1955.13,14947.08,36346.87,37494.81,25774.63,29221.78,14575.77,8253.19
1389586.1295,2771.23,15029.62,36347.78,37487.08,25761.37,29271.65,14732.74,8244.09
1389586.1315,3617.48,15171.82,36335.62,37462.62,25730.28,29320.39,14963.39,8207.61
1389586.1335,4288.29,15348.72,36316.59,37440.69,25695.28,29364.78,15205.34,8159.59
1389586.1355,4304.84,15436.56,36301.62,37413.36,25677.73,29374.75,15325.12,8144.19
1389586.1375,3708.32,15430.93,36287.6,37391.81,25667.81,29328.3,15262.37,8141.61
1389586.1395,2512.22,15244.53,36286.5,37399.44,25682.26,29242.14,14978.6,8155.87
1389586.1415,1704.88,15026.76,36304.29,37419.47,25714.59,29184.63,14689.4,8190.01
1389586.1435,1723.91,14918.85,36330.99,37443.74,25746.35,29180.43,14552.93,8222.87
1389586.1455,2506.16,14987.52,36349.73,37456.8,25756.03,29242.09,14659.12,8245.14
1389586.1475,3334.52,15118.89,36348.54,37453.18,25747.45,29313.09,14871.89,8245.04
1389586.1495,4158.07,15301.85,36332.09,37430.53,25718.74,29364.97,15142.16,8214.62
1389586.1515,4358.67,15412.48,36300.95,37393.53,25683.36,29370.12,15299.27,8164.36
1389586.1535,4009.06,15443.71,36281.73,37388.66,25663.14,29338.17,15295.17,8134.22
1389586.1555,2916.96,15324.59,36285.64,37410.6,25680.35,29267.46,15079.98,8158.49
1389586.1575,1927.42,15120.89,36307.53,37448.08,25720.98,29202.61,14775.9,8207.85
1389586.1595,1616.1,14957.72,36335.14,37483.17,25750.69,29189.97,14572.57,8233.21
1389586.1615,2236.89,14965.2,36356.6,37496.43,25759.94,29239.23,14611.77,8234.31
1389586.1635,3040.98,15065.91,36358.69,37486.22,25753.79,29301.31,14799.41,8228.73
1389586.1655,3927.47,15234.9,36342.15,37457.23,25729.85,29354.96,15066.43,8210.66
1389586.1675,4350.81,15377.33,36307.29,37405.78,25696.23,29369.41,15271.47,8186.34
1389586.1695,4221.96,15445.85,36288.31,37380.22,25679.07,29348.42,15320.97,8174.66
1389586.1715,3337.62,15382.34,36283.78,37381.18,25686.12,29287.68,15172.67,8173.51
1389586.1735,2213.67,15186.6,36303.0,37415.99,25720.74,29216.67,14869.41,8207.32
1389586.1755,1611.66,14989.76,36336.14,37454.47,25758.32,29189.02,14615.87,8250.19
1389586.1775,1976.63,14943.89,36360.6,37482.17,25774.39,29219.77,14574.72,8265.35
1389586.1795,2763.75,15018.66,36363.94,37476.5,25768.28,29277.14,14727.5,8255.29
1389586.1815,3639.51,15162.61,36348.73,37458.62,25741.15,29333.74,14960.91,8227.78
1389586.1835,4269.98,15323.78,36311.49,37421.8,25699.33,29367.74,15193.04,8183.15
1389586.1855,4319.95,15418.91,36282.11,37384.51,25667.38,29362.92,15313.05,8146.14
1389586.1875,3695.87,15406.75,36267.48,37371.83,25657.85,29309.66,15253.35,8126.16
1389586.1895,2545.93,15244.3,36282.31,37397.25,25685.22,29236.32,14995.05,8147.81
1389586.1915,1699.92,15031.96,36316.4,37433.44,25728.85,29191.78,14695.26,8193.35
1389586.1935,1743.75,14924.29,36348.82,37469.25,25753.93,29201.99,14544.68,8223.49
1389586.1955,2478.5,14974.17,36357.45,37468.96,25752.64,29251.48,14639.28,8226.68
1389586.1975,3331.28,15107.25,36357.69,37469.3,25743.44,29316.33,14867.02,8223.11
1389586.1995,4122.11,15282.11,36331.42,37454.23,25710.73,29356.05,15125.51,8193.3
1389586.2015,4362.49,15402.6,36299.19,37414.84,25677.3,29365.83,15294.51,8157.83
1389586.2035,3998.14,15435.89,36277.73,37383.13,25661.76,29337.84,15304.71,8147.62
1389586.2055,2952.0,15324.64,36278.44,37387.76,25682.26,29268.79,15095.47,8170.99
1389586.2075,1918.7,15108.11,36300.19,37414.79,25718.6,29209.38,14783.05,8197.5
1389586.2095,1619.82,14944.6,36327.51,37453.94,25746.3,29190.78,14571.62,8223.96
1389586.2115,2210.28,14956.48,36345.92,37476.07,25753.74,29241.57,14607.34,8237.22
1389586.2135,3029.73,15056.8,36339.91,37461.24,25738.62,29303.79,14802.27,8222.1
1389586.2155,3905.77,15231.9,36332.33,37438.83,25710.16,29361.54,15067.67,8193.02
1389586.2175,4357.39,15382.01,36307.24,37408.07,25679.54,29388.0,15288.4,8156.25
1389586.2195,4211.0,15444.47,36280.97,37385.56,25660.18,29364.3,15344.24,8147.34
1389586.2215,3346.59,15376.0,36269.24,37384.75,25667.96,29302.41,15171.48,8160.54
1389586.2235,2202.42,15178.83,36277.87,37401.39,25705.91,29232.55,14852.91,8193.97
1389586.2255,1609.85,14989.09,36316.35,37445.12,25750.54,29194.31,14600.18,8239.08
1389586.2275,1962.57,14952.28,36343.1,37473.35,25765.85,29221.59,14566.76,8254.72
1389586.2295,2755.59,15025.0,36343.15,37466.53,25752.17,29278.0,14722.59,8241.42
1389586.2315,3627.11,15166.57,36322.31,37441.54,25715.88,29329.88,14956.05,8203.89
1389586.2335,4265.74,15327.41,36300.52,37415.18,25683.98,29363.92,15190.84,8173.51
1389586.2355,4328.54,15424.35,36276.92,37386.04,25663.28,29367.55,15317.97,8146.29
1389586.2375,3715.99,15415.15,36270.15,37381.13,25667.81,29328.87,15258.65,8146.1
1389586.2395,2567.1,15254.31,36274.63,37390.52,25691.66,29242.71,14986.14,8171.85
1389586.2415,1716.28,15037.11,36301.19,37422.85,25730.09,29192.64,14691.07,8205.84
1389586.2435,1751.71,14937.35,36333.9,37463.14,25755.79,29198.98,14560.22,8229.4
1389586.2455,2475.64,14981.32,36346.58,37478.36,25754.45,29253.01,14655.54,8220.72
1389586.2475,3338.29,15119.51,36346.11,37472.92,25737.19,29324.77,14877.85,8202.51
1389586.2495,4120.73,15292.84,36325.41,37450.7,25704.43,29380.09,15137.01,8176.71
1389586.2515,4380.08,15416.19,36288.55,37404.92,25670.2,29386.95,15305.81,8148.62
1389586.2535,4005.62,15436.7,36268.91,37375.17,25657.9,29348.9,15306.67,8142.85
1389586.2555,2966.21,15326.79,36272.63,37386.9,25674.35,29269.46,15096.57,8160.26
1389586.2575,1912.26,15105.3,36297.99,37415.7,25712.68,29199.17,14781.1,8189.15
1389586.2595,1654.67,14973.59,36346.11,37475.78,25768.66,29207.9,14599.99,8236.12
1389586.2615,2225.69,14982.08,36370.42,37501.72,25783.4,29254.25,14631.8,8256.05
1389586.2635,3062.63,15083.03,36363.56,37486.94,25759.75,29310.95,14814.04,8239.51
1389586.2655,3899.53,15228.94,36335.33,37454.51,25716.36,29356.15,15048.17,8204.32
1389586.2675,4375.84,15380.81,36305.81,37416.99,25679.4,29379.09,15255.69,8174.37
1389586.2695,4210.42,15443.61,36280.16,37386.9,25662.71,29366.78,15328.08,8163.36
1389586.2715,3385.02,15387.73,36271.67,37393.96,25664.05,29307.08,15191.41,8169.51
1389586.2735,2204.7,15178.73,36282.26,37416.65,25692.42,29221.92,14879.18,8196.21
1389586.2755,1630.88,14997.82,36318.64,37456.9,25741.15,29185.92,14633.28,8233.31
1389586.2775,1949.93,14956.14,36354.5,37487.8,25775.15,29223.64,14585.16,8256.2
1389586.2795,2782.15,15047.17,36368.33,37494.85,25779.92,29300.36,14740.28,8260.06
1389586.2815,3628.21,15191.37,36361.89,37469.82,25757.84,29364.21,14969.54,8243.85
1389586.2835,4300.98,15354.64,36327.84,37422.8,25711.3,29390.34,15206.01,8195.35
1389586.2855,4324.29,15438.94,36290.79,37376.93,25675.92,29381.61,15326.45,8148.24
1389586.2875,3750.37,15432.93,36277.06,37374.45,25667.77,29335.88,15272.09,8146.33
1389586.2895,2575.73,15269.0,36285.5,37401.54,25692.47,29254.01,14995.39,8179.47
1389586.2915,1740.27,15056.28,36312.63,37446.36,25731.42,29202.75,14696.08,8220.72
1389586.2935,1740.79,14948.99,36335.85,37479.45,25759.18,29207.14,14563.13,8248.47
1389586.2955,2502.3,15008.83,36356.12,37492.52,25767.71,29274.61,14678.62,8255.1
1389586.2975,3334.71,15142.35,36357.74,37477.69,25748.07,29341.75,14898.97,8232.74
1389586.2995,4141.33,15310.96,36336.0,37445.31,25705.72,29387.57,15146.59,8191.16
1389586.3015,4375.98,15420.34,36298.57,37408.21,25667.58,29388.05,15300.75,8153.11
1389586.3035,4028.99,15443.04,36272.67,37391.29,25656.94,29350.57,15307.38,8133.94
1389586.3055,2978.37,15338.61,36274.82,37406.64,25676.68,29281.52,15109.49,8151.82
1389586.3075,1943.16,15120.65,36296.37,37424.52,25716.83,29214.43,14801.07,8202.03
1389586.3095,1634.03,14975.6,36336.33,37464.96,25766.9,29198.94,14597.85,8254.82
1389586.3115,2217.25,14981.41,36365.61,37486.7,25784.4,29248.38,14618.54,8267.88
1389586.3135,3050.66,15090.13,36367.85,37473.92,25775.15,29313.66,14815.57,8259.49
1389586.3155,3899.62,15239.38,36348.11,37443.83,25739.82,29365.5,15056.66,8230.88
1389586.3175,4363.06,15387.49,36313.2,37403.68,25698.0,29386.71,15256.36,8191.3
1389586.3195,4213.72,15441.9,36281.16,37377.98,25678.54,29363.06,15305.66,8167.32
1389586.3215,3393.46,15390.83,36272.29,37382.03,25686.41,29294.64,15178.63,8167.79
1389586.3235,2230.17,15189.55,36291.75,37411.5,25721.7,29225.35,14873.65,8202.27
1389586.3255,1644.52,15005.73,36325.46,37459.0,25754.5,29192.98,14624.03,8233.98
1389586.3275,1948.4,14952.66,36359.12,37502.1,25780.82,29225.26,14580.68,8249.9
1389586.3295,2770.42,15042.64,36370.42,37508.78,25777.49,29284.72,14740.37,8245.28
1389586.3315,3619.29,15186.22,36365.8,37489.13,25762.27,29347.42,14974.74,8237.79
1389586.3335,4303.46,15358.59,36340.77,37455.13,25725.61,29386.67,15208.06,8208.61
1389586.3355,4324.96,15431.88,36300.76,37408.17,25686.46,29371.55,15311.86,8176.09
1389586.3375,3757.48,15426.69,36279.16,37390.52,25674.63,29320.77,15257.07,8159.92
1389586.3395,2588.56,15268.95,36286.84,37416.41,25706.48,29254.63,15000.54,8197.02
1389586.3415,1759.39,15066.82,36316.4,37460.71,25754.74,29209.33,14714.43,8251.62
1389586.3435,1737.5,14956.43,36352.16,37496.76,25792.74,29218.87,14567.76,8284.0
1389586.3455,2501.39,15011.5,36371.09,37493.09,25797.56,29286.44,14670.42,8280.66
1389586.3475,3303.96,15120.17,36357.31,37468.82,25763.94,29341.75,14872.08,8247.09
1389586.3495,4130.98,15293.03,36330.18,37435.25,25718.36,29392.06,15129.42,8205.41
1389586.3515,4357.15,15404.51,36294.89,37393.15,25682.02,29384.71,15291.69,8175.09
1389586.3535,4040.96,15435.41,36270.0,37368.97,25665.57,29339.6,15303.04,8148.77
1389586.3555,2967.88,15317.73,36266.14,37369.16,25681.55,29248.72,15091.09,8161.45
1389586.3575,1954.98,15117.17,36297.04,37407.97,25727.66,29194.41,14784.24,8218.05
1389586.3595,1608.32,14956.91,36325.13,37438.73,25759.18,29183.44,14574.77,8255.2
1389586.3615,2203.99,14965.82,36346.39,37463.38,25769.19,29233.03,14609.96,8259.73
1389586.3635,3010.7,15072.92,36356.98,37469.25,25768.38,29305.51,14801.65,8258.15
1389586.3655,3900.0,15237.71,36343.25,37446.41,25735.29,29361.2,15050.27,8233.5
1389586.3675,4350.14,15382.53,36312.06,37410.65,25697.52,29378.08,15254.88,8189.73
1389586.3695,4244.61,15450.81,36285.21,37394.1,25679.93,29364.59,15337.76,8156.21
1389586.3715,3398.56,15398.46,36273.29,37400.97,25684.55,29307.89,15213.01,8159.07
1389586.3735,2266.93,15211.2,36293.8,37435.77,25720.98,29242.09,14919.33,8202.79
1389586.3755,1623.2,15005.4,36324.31,37460.76,25758.22,29205.37,14640.76,8244.04
1389586.3775,1949.93,14949.47,36351.69,37477.64,25775.63,29224.97,14570.38,8260.63
1389586.3795,2734.95,15016.51,36354.98,37468.49,25762.99,29278.52,14708.33,8244.66
1389586.3815,3614.47,15163.04,36346.25,37450.03,25736.95,29333.74,14947.08,8225.16
1389586.3835,4277.66,15335.94,36319.21,37410.55,25702.57,29376.51,15200.81,8197.59
1389586.3855,4348.42,15427.83,36286.5,37374.74,25668.96,29372.5,15318.44,8160.74
1389586.3875,3763.53,15420.96,36267.43,37363.49,25662.0,29323.87,15269.33,8150.82
1389586.3895,2613.35,15255.21,36267.86,37387.18,25686.27,29244.24,15003.64,8168.65
1389586.3915,1736.36,15042.74,36290.75,37424.14,25728.85,29191.69,14698.17,8205.03
1389586.3935,1739.22,14934.88,36326.7,37462.57,25762.04,29198.55,14548.68,8234.98
1389586.3955,2461.39,14981.99,36339.24,37471.54,25762.7,29249.1,14642.14,8242.56
1389586.3975,3304.96,15106.68,36336.47,37464.15,25745.92,29312.9,14855.58,8232.02
1389586.3995,4110.81,15285.97,36314.73,37429.48,25712.4,29371.22,15116.98,8201.7
1389586.4015,4379.99,15411.95,36284.5,37389.66,25681.55,29390.1,15297.94,8169.8
1389586.4035,4049.92,15453.01,36269.05,37378.41,25668.96,29365.97,15325.64,8156.21
1389586.4055,3021.86,15344.19,36278.25,37398.91,25687.08,29300.03,15126.95,8165.46
1389586.4075,1973.01,15131.48,36305.86,37441.16,25729.09,29231.46,14810.66,8210.14
1389586.4095,1634.36,14966.73,36340.91,37485.41,25765.85,29222.4,14597.04,8253.77
1389586.4115,2199.51,14962.96,36348.49,37481.93,25766.09,29260.69,14615.59,8254.96
1389586.4135,3007.13,15056.04,36337.71,37456.23,25750.64,29316.0,14796.07,8230.21
1389586.4155,3879.98,15217.02,36315.54,37418.56,25720.12,29370.98,15059.9,8189.58
1389586.4175,4357.39,15369.46,36286.17,37386.71,25689.7,29385.86,15280.11,8163.88
1389586.4195,4254.72,15443.52,36264.76,37370.4,25666.29,29366.45,15354.06,8147.67
1389586.4215,3423.07,15382.58,36258.84,37369.64,25666.14,29309.71,15205.24,8159.16
1389586.4235,2265.31,15187.65,36274.01,37391.76,25692.85,29233.27,14897.16,8193.3
1389586.4255,1629.97,14987.95,36306.72,37432.25,25733.62,29194.98,14621.02,8231.4
1389586.4275,1943.3,14944.17,36335.76,37461.19,25756.55,29220.49,14566.57,8251.33
1389586.4295,2728.89,15018.51,36342.77,37454.23,25755.07,29281.24,14717.49,8244.75
1389586.4315,3602.41,15164.09,36333.99,37437.82,25731.23,29339.46,14950.47,8213.76
1389586.4335,4264.83,15333.18,36311.58,37407.35,25693.8,29380.09,15191.37,8174.09
1389586.4355,4348.85,15437.75,36281.97,37383.99,25661.28,29379.18,15327.74,8138.47
1389586.4375,3765.39,15424.21,36263.28,37380.89,25650.7,29331.45,15271.9,8128.36
1389586.4395,2624.94,15266.13,36272.91,37407.21,25677.83,29256.78,15001.16,8151.82
1389586.4415,1746.46,15053.89,36313.49,37444.45,25735.24,29213.1,14695.69,8208.42
1389586.4435,1746.08,14950.13,36350.3,37465.24,25773.19,29227.31,14559.41,8250.91
1389586.4455,2460.67,14991.19,36360.46,37465.05,25779.54,29282.05,14653.02,8260.25
1389586.4475,3315.54,15117.98,36348.06,37453.75,25758.22,29322.91,14865.97,8235.74
1389586.4495,4111.05,15294.22,36335.04,37430.58,25730.28,29370.93,15124.51,8201.89
1389586.4515,4396.49,15420.68,36301.52,37393.67,25691.08,29378.47,15298.03,8163.74
1389586.4535,4047.68,15442.56,36272.91,37375.26,25668.1,29343.08,15306.76,8148.19
1389586.4555,3031.92,15338.95,36274.01,37386.8,25682.31,29274.28,15104.1,8169.08
1389586.4575,1962.14,15125.9,36301.04,37422.33,25725.51,29209.9,14795.59,8217.62
1389586.4595,1643.32,14979.22,36339.19,37479.45,25775.58,29195.07,14600.23,8264.02
1389586.4615,2167.75,14967.82,36352.4,37495.05,25780.63,29223.25,14610.77,8267.31
1389586.4635,3011.66,15072.01,36355.17,37488.42,25768.33,29282.86,14777.71,8253.24
1389586.4655,3864.62,15231.8,36348.73,37466.29,25744.58,29347.28,15022.33,8225.97
1389586.4675,4381.47,15392.31,36321.69,37423.47,25706.68,29382.14,15258.98,8181.86
1389586.4695,4240.75,15453.05,36290.79,37387.14,25678.26,29364.49,15338.28,8150.86
1389586.4715,3442.14,15399.98,36276.92,37385.99,25678.73,29300.98,15205.19,8151.72
1389586.4735,2261.69,15203.1,36291.75,37411.5,25716.26,29225.11,14892.06,8191.21
1389586.4755,1640.51,15009.69,36321.45,37449.27,25755.27,29179.0,14625.12,8241.23
1389586.4775,1912.5,14954.85,36348.06,37472.16,25778.49,29197.03,14566.71,8281.76
1389586.4795,2737.81,15035.44,36354.36,37472.49,25773.62,29263.69,14708.62,8282.61
1389586.4815,3580.28,15174.68,36342.82,37458.33,25748.97,29324.92,14937.69,8252.76
1389586.4835,4285.62,15345.05,36319.59,37430.34,25711.25,29362.59,15188.98,8205.61
1389586.4855,4344.18,15438.89,36294.13,37385.99,25684.93,29365.69,15321.64,8173.99
1389586.4875,3807.5,15438.94,36280.83,37372.78,25677.87,29324.15,15267.18,8170.32
1389586.4895,2642.92,15286.73,36289.7,37397.58,25707.39,29243.66,15001.11,8197.4
1389586.4915,1773.5,15072.73,36315.16,37442.74,25756.17,29199.79,14703.23,8236.6
1389586.4935,1715.99,14958.91,36343.63,37477.78,25787.74,29197.84,14555.74,8254.96
1389586.4955,2450.51,14999.63,36357.22,37481.84,25785.88,29249.77,14647.91,8251.24
1389586.4975,3281.45,15114.88,36348.3,37458.09,25758.84,29303.98,14855.05,8233.55
1389586.4995,4100.75,15281.25,36325.13,37424.52,25717.79,29352.24,15108.87,8195.78
1389586.5015,4382.61,15413.76,36292.18,37385.85,25684.26,29371.55,15292.88,8163.74
1389586.5035,4063.61,15442.8,36267.14,37360.72,25665.43,29338.08,15305.66,8148.34
1389586.5055,3033.83,15336.28,36264.47,37368.21,25679.02,29263.55,15103.25,8165.74
1389586.5075,1970.48,15124.37,36295.04,37417.7,25723.89,29199.32,14795.78,8212.14
1389586.5095,1616.29,14969.16,36332.52,37468.68,25755.89,29188.11,14591.17,8237.51
1389586.5115,2162.89,14963.82,36357.55,37500.29,25762.94,29236.03,14611.06,8242.51
1389586.5135,2998.07,15072.3,36359.51,37495.76,25751.21,29300.03,14802.51,8240.27
1389586.5155,3855.28,15219.55,36337.43,37467.29,25721.22,29350.19,15046.98,8216.14
1389586.5175,4354.0,15368.84,36295.7,37414.51,25682.6,29368.12,15255.36,8173.66
1389586.5195,4233.69,15432.6,36265.52,37369.49,25660.09,29355.72,15330.7,8147.34
1389586.5215,3442.57,15395.74,36256.79,37363.44,25664.05,29300.07,15199.19,8156.3
1389586.5235,2263.45,15201.09,36277.01,37388.71,25704.67,29228.5,14889.58,8196.21
1389586.5255,1651.0,15022.9,36318.74,37440.92,25760.08,29203.85,14640.29,8243.85
1389586.5275,1906.92,14958.24,36347.49,37471.87,25782.21,29225.4,14574.48,8248.9
1389586.5295,2718.74,15026.14,36343.25,37460.47,25761.94,29273.32,14715.39,8211.04
1389586.5315,3556.16,15153.7,36326.03,37431.2,25728.61,29324.96,14939.98,8195.59
1389586.5335,4269.31,15330.7,36297.04,37402.4,25687.22,29366.74,15187.46,8176.28
1389586.5355,4335.07,15426.26,36271.48,37373.83,25663.95,29372.65,15319.87,8170.8
1389586.5375,3808.31,15427.88,36255.27,37363.58,25651.17,29326.78,15274.34,8159.54
1389586.5395,2629.52,15262.32,36260.47,37381.22,25674.49,29246.67,15005.73,8172.66
1389586.5415,1764.92,15052.8,36283.97,37414.98,25718.17,29191.4,14704.9,8202.98
1389586.5435,1696.97,14942.46,36321.12,37452.61,25760.08,29200.94,14562.75,8241.27
1389586.5455,2449.23,14996.96,36339.1,37464.19,25764.85,29260.16,14658.88,8248.95
1389586.5475,3259.56,15105.63,36329.85,37444.17,25744.49,29315.14,14857.44,8232.88
1389586.5495,4098.7,15272.76,36300.23,37405.88,25700.86,29359.82,15107.59,8190.2
1389586.5515,4365.25,15400.32,36276.25,37372.5,25672.39,29377.89,15288.07,8163.74
1389586.5535,4083.35,15447.62,36260.08,37364.3,25659.66,29350.33,15310.67,8151.96
1389586.5555,3037.74,15342.0,36262.33,37373.12,25677.25,29283.91,15112.93,8159.3
1389586.5575,2000.33,15137.48,36290.46,37411.17,25718.41,29230.74,14812.14,8194.3
1389586.5595,1603.99,14964.82,36320.45,37445.79,25751.07,29206.37,14590.65,8232.74
1389586.5615,2159.31,14958.57,36337.81,37462.05,25755.6,29236.56,14605.95,8237.17
1389586.5635,2957.58,15051.03,36329.46,37442.83,25737.57,29281.52,14787.63,8213.57
1389586.5655,3853.23,15217.88,36319.93,37428.29,25713.21,29343.99,15038.78,8192.11
1389586.5675,4341.27,15372.61,36292.08,37400.44,25680.55,29375.99,15253.45,8164.69
1389586.5695,4259.44,15441.75,36262.8,37378.03,25657.61,29359.11,15325.5,8146.1
1389586.5715,3446.05,15393.88,36252.65,37378.98,25665.81,29289.87,15205.53,8150.1
1389586.5735,2299.93,15206.05,36274.39,37410.69,25708.39,29224.26,14889.86,8190.54
1389586.5755,1627.35,15006.26,36305.96,37447.55,25750.54,29195.6,14631.23,8237.32
1389586.5775,1910.31,14944.51,36335.66,37468.63,25768.19,29222.4,14569.57,8258.53
1389586.5795,2697.33,15021.37,36347.82,37464.86,25764.18,29286.96,14706.66,8256.96
1389586.5815,3576.09,15170.72,36343.86,37452.94,25743.87,29346.61,14944.94,8232.98
1389586.5835,4259.25,15338.57,36315.83,37419.47,25699.05,29373.08,15186.41,8181.24
1389586.5855,4354.81,15434.31,36283.59,37390.52,25656.61,29368.74,15321.69,8138.09
1389586.5875,3799.77,15428.64,36262.23,37382.65,25638.06,29310.52,15266.8,8119.39
1389586.5895,2651.55,15268.28,36262.8,37399.2,25662.0,29222.87,14995.77,8143.71
1389586.5915,1748.23,15056.04,36293.32,37430.34,25717.98,29175.71,14701.46,8208.18
1389586.5935,1705.65,14942.41,36330.89,37455.61,25768.62,29190.11,14561.85,8263.64
1389586.5955,2430.49,14994.48,36358.22,37469.53,25789.93,29259.54,14660.12,8283.57
1389586.5975,3270.39,15111.88,36352.78,37460.38,25774.53,29319.77,14858.92,8260.68
1389586.5995,4085.11,15273.86,36316.78,37425.86,25722.75,29360.63,15106.82,8202.6
1389586.6015,4375.51,15394.78,36277.73,37385.18,25680.35,29366.97,15278.91,8162.55
1389586.6035,4082.63,15445.23,36261.61,37378.74,25664.86,29340.08,15313.58,8153.63
1389586.6055,3066.35,15343.05,36261.32,37393.29,25676.68,29266.89,15119.89,8160.4
1389586.6075,1996.42,15125.42,36281.26,37418.32,25714.21,29193.79,14789.87,8181.38
1389586.6095,1615.81,14957.62,36322.6,37462.14,25762.27,29189.26,14569.33,8238.55
1389586.6115,2158.79,14960.2,36351.97,37489.47,25781.16,29236.75,14593.56,8270.79
1389586.6135,2979.14,15055.23,36353.97,37486.41,25771.81,29300.07,14779.28,8267.93
1389586.6155,3855.71,15211.49,36334.52,37457.14,25732.19,29354.48,15023.61,8229.4
1389586.6175,4352.62,15361.6,36306.05,37418.32,25690.03,29373.32,15233.04,8185.58
1389586.6195,4273.56,15441.42,36280.54,37395.05,25662.85,29361.68,15320.68,8166.7
1389586.6215,3479.05,15397.46,36271.39,37393.24,25668.48,29306.27,15211.39,8174.42
1389586.6235,2313.28,15206.96,36280.73,37416.51,25703.15,29228.55,14912.03,8200.36
1389586.6255,1629.83,14998.25,36308.2,37455.8,25744.2,29192.02,14630.37,8226.63
1389586.6275,1910.88,14950.32,36346.82,37500.67,25782.83,29228.6,14559.27,8254.72
1389586.6295,2700.47,15027.91,36358.89,37498.96,25783.59,29295.4,14707.52,8264.78
1389586.6315,3572.85,15172.2,36345.72,37480.93,25755.84,29351.52,14944.46,8241.08
1389586.6335,4259.87,15335.32,36321.64,37440.35,25714.16,29385.81,15195.8,8203.79
1389586.6355,4373.26,15438.56,36289.03,37393.05,25675.25,29380.37,15330.51,8170.94
1389586.6375,3811.65,15430.21,36267.19,37378.36,25655.8,29325.97,15269.81,8156.11
1389586.6395,2673.39,15271.95,36270.38,37392.14,25667.05,29238.18,14996.01,8169.7
1389586.6415,1758.53,15054.13,36304.43,37433.2,25713.49,29184.06,14689.88,8205.84
1389586.6435,1712.75,14943.7,36341.0,37483.17,25754.79,29192.26,14549.21,8246.38
1389586.6455,2410.79,14984.13,36354.12,37496.05,25766.04,29249.24,14632.08,8260.97
1389586.6475,3267.34,15104.72,36340.91,37475.21,25746.3,29306.94,14835.41,8225.35
1389586.6495,4066.42,15262.8,36306.91,37424.38,25705.72,29343.89,15085.03,8171.61
1389586.6515,4392.05,15403.22,36282.31,37381.56,25675.82,29364.02,15279.53,8150.63
1389586.6535,4090.74,15449.81,36271.53,37376.55,25672.58,29349.04,15315.39,8159.78
1389586.6555,3105.93,15358.02,36273.63,37393.15,25689.51,29281.05,15125.9,8184.77
1389586.6575,1996.18,15134.91,36287.69,37420.18,25721.93,29208.95,14813.38,8222.39
1389586.6595,1629.16,14973.45,36322.5,37468.44,25763.32,29195.6,14605.81,8259.49
1389586.6615,2134.7,14958.53,36343.1,37481.55,25772.53,29235.89,14601.18,8254.53
1389586.6635,2977.66,15061.33,36346.73,37465.67,25758.27,29298.45,14757.97,8235.03
1389586.6655,3834.58,15222.07,36341.39,37449.89,25733.76,29359.06,15027.91,8216.57
1389586.6675,4386.14,15393.88,36325.36,37427.24,25704.43,29396.06,15273.86,8195.02
1389586.6695,4274.61,15460.73,36299.61,37396.53,25679.83,29381.33,15346.43,8162.45
1389586.6715,3504.13,15409.71,36281.88,37392.76,25675.01,29317.53,15203.57,8162.31
1389586.6735,2312.99,15211.58,36292.22,37423.76,25710.25,29245.33,14901.12,8200.03
1389586.6755,1665.78,15024.43,36327.41,37469.58,25761.04,29219.54,14645.91,8251.57
1389586.6775,1900.96,14962.58,36354.4,37488.51,25788.93,29239.71,14572.43,8280.71
1389586.6795,2712.2,15031.86,36358.89,37481.12,25783.02,29289.68,14705.14,8274.51
1389586.6815,3547.76,15163.14,36340.05,37455.75,25749.21,29328.87,14927.06,8244.04
1389586.6835,4263.35,15327.98,36307.58,37413.51,25698.33,29350.43,15165.47,8196.16
1389586.6855,4348.99,15424.87,36280.64,37371.54,25664.86,29357.48,15299.89,8163.5
1389586.6875,3845.5,15434.74,36272.43,37363.58,25659.9,29326.35,15270.14,8159.64
1389586.6895,2690.94,15286.88,36282.69,37388.52,25687.17,29255.44,15015.27,8184.72
1389586.6915,1795.82,15074.64,36316.92,37443.59,25737.43,29207.9,14714.91,8221.67
1389586.6935,1712.99,14959.05,36357.22,37491.85,25776.29,29208.38,14566.18,8261.16
1389586.6955,2429.25,15001.3,36377.58,37507.35,25788.55,29269.75,14656.26,8275.75
1389586.6975,3258.8,15122.13,36368.85,37490.47,25776.06,29332.45,14867.36,8262.92
1389586.6995,4097.03,15289.93,36349.49,37463.67,25741.01,29383.38,15117.93,8229.69
1389586.7015,4412.46,15422.73,36313.35,37415.99,25701.38,29395.97,15305.66,8187.58
1389586.7035,4120.26,15451.62,36280.83,37383.8,25672.15,29356.77,15323.31,8146.91
1389586.7055,3105.55,15347.39,36270.0,37379.46,25671.91,29268.65,15119.03,8138.47
1389586.7075,2009.82,15124.28,36285.6,37406.12,25711.83,29200.61,14797.74,8187.01
1389586.7095,1617.38,14955.52,36314.16,37444.5,25749.4,29184.01,14577.82,8239.17
1389586.7115,2123.31,14939.26,36334.47,37460.0,25760.61,29226.88,14585.31,8256.1
1389586.7135,2955.68,15043.69,36338.91,37448.51,25745.54,29288.06,14765.69,8244.18
1389586.7155,3830.19,15208.58,36338.86,37446.79,25729.33,29360.25,15022.23,8219.29
1389586.7175,4375.03,15375.47,36312.92,37417.13,25698.47,29393.96,15255.6,8182.1
1389586.7195,4281.19,15444.95,36290.94,37389.47,25680.07,29381.56,15339.04,8162.83
1389586.7215,3520.63,15404.27,36276.34,37390.09,25677.16,29316.0,15224.17,8166.31
1389586.7235,2331.97,15208.77,36289.03,37409.88,25710.68,29242.71,14928.87,8203.32
1389586.7255,1668.98,15020.18,36323.84,37454.28,25755.65,29212.72,14666.75,8244.04
1389586.7275,1891.66,14951.04,36356.88,37486.03,25779.11,29235.08,14581.01,8262.68
1389586.7295,2717.69,15039.26,36370.62,37488.85,25776.87,29298.69,14720.87,8261.25
1389586.7316,3551.39,15172.39,36360.13,37465.29,25756.08,29357.06,14939.07,8230.83
1389586.7336,4287.39,15345.72,36334.42,37425.9,25717.69,29394.87,15191.03,8199.03
1389586.7356,4373.5,15440.18,36307.29,37391.48,25687.27,29396.87,15329.65,8178.09
1389586.7376,3883.93,15447.81,36289.84,37380.18,25670.58,29346.52,15296.65,8161.4
1389586.7396,2700.0,15282.01,36279.3,37388.38,25684.41,29243.62,15025.81,8174.47
1389586.7416,1808.79,15074.64,36303.33,37428.67,25726.99,29191.5,14724.92,8216.81
1389586.7436,1690.77,14946.7,36337.52,37466.44,25762.56,29194.79,14549.54,8254.43
1389586.7456,2419.14,14986.37,36351.73,37476.88,25763.99,29252.68,14622.79,8253.77
1389586.7476,3234.1,15099.0,36348.25,37457.8,25745.2,29316.29,14833.26,8233.26
1389586.7496,4092.36,15273.19,36326.89,37428.24,25707.3,29370.45,15103.77,8202.74
1389586.7516,4389.0,15404.61,36302.71,37396.01,25676.73,29391.67,15288.55,8182.24
1389586.7536,4139.52,15455.3,36287.5,37391.38,25664.48,29375.37,15319.16,8171.8
1389586.7556,3117.8,15357.4,36285.55,37407.83,25680.78,29305.65,15113.5,8179.47
1389586.7576,2044.63,15145.49,36300.57,37433.25,25717.45,29224.26,14797.36,8191.87
1389586.7596,1607.8,14972.02,36329.51,37453.08,25760.8,29187.35,14567.57,8229.88
1389586.7616,2142.14,14966.39,36354.74,37479.12,25782.06,29223.87,14577.82,8264.92
1389586.7636,2943.09,15056.09,36352.02,37466.86,25773.72,29279.33,14756.3,8268.26
1389586.7656,3830.58,15208.87,36328.42,37437.63,25737.72,29327.59,14999.2,8232.21
1389586.7676,4346.8,15367.8,36299.71,37403.11,25699.71,29366.4,15230.71,8192.44
1389586.7696,4299.36,15451.72,36282.54,37386.28,25678.83,29371.12,15331.89,8176.61
1389586.7716,3524.4,15411.28,36271.15,37385.61,25678.73,29317.72,15221.79,8178.52
1389586.7736,2362.39,15224.51,36284.02,37412.31,25708.63,29249.67,14927.91,8206.51
1389586.7756,1645.71,15017.75,36310.25,37446.88,25744.97,29190.02,14632.32,8242.75
1389586.7776,1887.56,14955.0,36344.34,37490.42,25771.24,29203.08,14546.16,8258.63
1389586.7796,2680.97,15037.3,36363.32,37498.29,25778.11,29277.28,14689.35,8256.48
1389586.7816,3553.68,15176.87,36355.79,37480.5,25762.13,29331.35,14923.57,8239.22
1389586.7836,4258.06,15346.24,36325.51,37444.79,25721.36,29358.53,15173.1,8205.75
1389586.7856,4369.88,15438.46,36287.93,37406.64,25689.13,29349.24,15304.47,8180.24
1389586.7876,3852.89,15442.9,36265.0,37388.14,25675.25,29302.79,15265.09,8166.46
1389586.7896,2717.35,15298.32,36272.96,37403.16,25699.05,29225.78,15014.6,8186.58
1389586.7916,1778.98,15076.07,36295.51,37430.15,25735.43,29170.37,14708.23,8222.25
1389586.7936,1686.29,14948.08,36330.37,37466.77,25763.99,29173.28,14548.02,8256.72
1389586.7956,2394.34,14993.96,36353.26,37482.27,25769.86,29232.93,14635.95,8264.02
1389586.7976,3232.77,15111.88,36351.02,37470.68,25750.59,29294.49,14843.51,8231.12
1389586.7996,4064.13,15278.67,36326.6,37438.4,25710.01,29342.08,15093.47,8198.98
1389586.8016,4386.62,15408.23,36293.27,37413.08,25676.3,29358.2,15285.68,8180.57
1389586.8036,4128.12,15466.12,36279.97,37413.32,25665.0,29343.32,15331.41,8178.52
1389586.8056,3143.26,15377.38,36284.83,37422.23,25685.12,29279.38,15138.01,8199.17
1389586.8076,2047.87,15161.47,36300.62,37437.82,25724.7,29208.09,14817.76,8232.4
1389586.8096,1608.09,14979.6,36328.61,37464.29,25763.04,29186.35,14583.88,8264.78
1389586.8116,2118.49,14967.4,36353.59,37491.9,25779.11,29221.92,14585.64,8274.75
1389586.8136,2940.51,15066.05,36361.41,37497.52,25773.48,29289.44,14766.98,8261.49
1389586.8156,3824.81,15221.93,36342.05,37460.62,25740.15,29339.13,15014.22,8231.4
1389586.8176,4346.51,15376.14,36311.25,37415.56,25701.96,29364.78,15233.61,8194.07
1389586.8196,4288.96,15460.68,36288.93,37393.15,25679.64,29358.1,15332.41,8154.35
1389586.8216,3520.97,15418.2,36277.97,37386.56,25679.78,29303.79,15228.8,8154.77
1389586.8236,2355.48,15237.09,36292.03,37411.22,25712.59,29228.5,14948.27,8197.26
1389586.8256,1640.75,15031.72,36317.59,37446.22,25750.97,29187.44,14672.09,8247.09
1389586.8276,1872.25,14961.2,36344.39,37478.64,25773.91,29204.75,14575.58,8280.71
1389586.8296,2653.89,15025.33,36353.74,37484.17,25775.96,29272.66,14677.57,8282.09
1389586.8316,3525.45,15167.43,36343.39,37469.11,25752.79,29333.07,14904.31,8255.44
1389586.8336,4232.6,15335.99,36317.73,37437.4,25716.12,29371.79,15159.61,8218.86
1389586.8356,4374.31,15443.09,36284.74,37401.01,25678.07,29371.65,15307.24,8185.01
1389586.8376,3858.04,15438.99,36263.99,37386.61,25662.33,29322.58,15266.52,8170.18
1389586.8396,2726.17,15290.6,36265.81,37404.21,25680.45,29236.37,15004.92,8185.67
1389586.8416,1786.76,15074.25,36296.37,37436.2,25728.66,29182.25,14700.41,8229.45
1389586.8436,1701.78,14962.67,36339.1,37478.88,25766.9,29188.02,14551.98,8260.11
1389586.8456,2378.46,14997.87,36363.42,37498.19,25774.05,29244.9,14632.27,8262.83
1389586.8476,3238.01,15122.8,36362.46,37496.38,25761.32,29314.66,14844.23,8247.33
1389586.8496,4054.26,15285.45,36335.38,37464.67,25725.65,29366.21,15096.62,8210.61
1389586.8516,4405.98,15424.44,36300.95,37421.99,25685.22,29380.85,15289.45,8173.66
1389586.8536,4123.74,15466.69,36283.4,37398.49,25668.05,29355.96,15322.64,8154.82
1389586.8556,3160.05,15374.28,36278.78,37402.06,25679.07,29283.29,15129.0,8167.32
1389586.8576,2043.01,15160.23,36298.66,37432.96,25719.65,29214.24,14812.19,8215.67
1389586.8596,1638.79,14997.05,36331.8,37473.73,25759.6,29195.74,14602.09,8252.0
1389586.8616,2106.33,14973.21,36348.68,37491.23,25766.85,29228.45,14600.09,8255.39
1389586.8636,2944.18,15065.34,36348.16,37476.73,25757.51,29287.39,14763.93,8254.1
1389586.8656,3806.97,15223.5,36341.34,37458.04,25742.44,29345.9,15005.97,8239.89
1389586.8676,4371.21,15388.44,36317.31,37427.57,25707.96,29373.22,15234.47,8202.55
1389586.8696,4279.85,15454.44,36291.41,37399.77,25675.49,29367.21,15318.44,8176.38
1389586.8716,3556.78,15419.77,36273.63,37405.02,25670.91,29319.91,15214.02,8176.85
1389586.8736,2365.3,15231.42,36282.64,37432.87,25705.48,29249.1,14909.65,8202.08
1389586.8756,1687.1,15040.83,36325.22,37477.07,25764.37,29226.16,14641.14,8258.44
1389586.8776,1881.98,14974.02,36362.51,37499.77,25798.75,29235.8,14567.09,8294.34
1389586.8796,2679.97,15031.86,36363.99,37491.52,25787.07,29285.01,14695.6,8282.95
1389586.8816,3519.06,15164.28,36349.54,37469.01,25758.03,29336.41,14919.28,8244.71
1389586.8836,4259.3,15338.38,36322.5,37446.79,25714.69,29356.34,15171.05,8197.17
1389586.8856,4364.78,15443.42,36292.6,37414.51,25687.17,29350.71,15316.87,8176.61
1389586.8876,3890.37,15449.81,36280.06,37403.16,25681.64,29308.7,15282.11,8176.61
1389586.8896,2759.03,15314.91,36292.46,37414.75,25706.39,29231.41,15036.49,8208.56
1389586.8916,1843.88,15104.1,36328.61,37455.18,25752.98,29188.02,14732.17,8254.05
1389586.8936,1718.14,14977.98,36360.79,37492.9,25784.3,29192.17,14561.56,8281.09
1389586.8956,2404.21,15008.98,36377.82,37509.64,25789.88,29253.1,14636.66,8278.51
1389586.8976,3235.96,15119.41,36366.28,37493.28,25769.43,29312.9,14840.89,8247.0
1389586.8996,4069.23,15273.24,36337.76,37452.8,25727.61,29342.61,15089.04,8203.08
1389586.9016,4406.98,15409.28,36302.28,37407.02,25687.03,29353.57,15276.1,8175.99
1389586.9036,4142.28,15455.39,36282.4,37391.43,25665.86,29336.46,15315.68,8166.74
1389586.9056,3185.46,15374.9,36282.21,37403.16,25678.69,29273.8,15134.77,8180.09
1389586.9076,2076.58,15158.61,36305.0,37436.92,25721.31,29208.85,14819.77,8208.9
1389586.9096,1647.23,14992.72,36341.05,37484.13,25765.04,29193.83,14595.56,8249.38
1389586.9116,2131.7,14974.98,36374.53,37523.61,25789.55,29233.65,14591.55,8276.13
1389586.9136,2958.97,15075.02,36378.44,37516.88,25776.58,29290.35,14768.51,8273.41
1389586.9156,3802.73,15219.21,36358.98,37481.46,25741.72,29336.98,15006.07,8245.04
1389586.9176,4365.92,15382.2,36326.6,37443.21,25699.52,29360.73,15241.15,8200.22
1389586.9196,4290.96,15451.0,36298.18,37420.37,25678.83,29352.38,15335.28,8161.74
1389586.9216,3572.42,15423.25,36289.27,37413.74,25678.73,29296.54,15224.74,8165.07
1389586.9236,2390.58,15240.24,36310.82,37436.49,25718.02,29227.31,14909.32,8213.19
1389586.9256,1704.41,15053.89,36346.3,37476.4,25764.23,29196.98,14647.06,8254.58
1389586.9276,1881.79,14982.37,36380.34,37508.21,25795.65,29221.25,14567.66,8279.32
1389586.9296,2691.22,15053.99,36383.3,37498.05,25791.12,29282.48,14705.85,8277.99
1389586.9316,3512.34,15174.3,36363.08,37461.91,25762.04,29331.64,14912.51,8256.87
1389586.9336,4269.17,15350.96,36337.05,37428.67,25720.98,29367.36,15160.75,8222.77
1389586.9356,4381.13,15454.1,36304.43,37394.77,25695.09,29374.65,15306.9,8200.5
1389586.9376,3929.33,15475.27,36285.26,37393.0,25683.22,29335.31,15286.02,8189.11
1389586.9396,2767.94,15318.3,36278.35,37402.44,25691.13,29240.8,15021.47,8195.54
1389586.9416,1856.04,15107.92,36307.86,37445.31,25733.43,29183.44,14716.25,8233.5
1389586.9436,1703.6,14982.85,36350.25,37493.66,25776.68,29186.4,14561.56,8274.75
1389586.9456,2410.94,15023.52,36380.25,37508.44,25787.64,29249.15,14645.53,8285.81
1389586.9476,3218.37,15132.0,36373.67,37487.56,25771.05,29311.18,14844.56,8267.12
1389586.9496,4083.25,15314.68,36362.56,37465.91,25745.3,29370.12,15111.83,8242.04
1389586.9516,4403.4,15446.62,36331.66,37427.05,25712.68,29385.57,15302.61,8207.37
1389586.9536,4171.42,15487.58,36303.62,37408.55,25689.41,29356.67,15334.13,8180.09
1389586.9556,3177.45,15389.02,36294.37,37411.5,25695.33,29283.67,15129.62,8188.96
1389586.9576,2096.37,15181.54,36314.4,37442.4,25729.56,29212.14,14811.66,8227.64
1389586.9596,1634.31,15005.92,36353.54,37484.94,25768.47,29189.88,14583.83,8264.64
1389586.9616,2133.04,14995.39,36382.77,37524.61,25784.78,29234.13,14589.88,8269.41
1389586.9636,2924.73,15078.31,36378.58,37518.46,25768.0,29293.87,14759.69,8246.71
1389586.9656,3808.02,15227.8,36360.08,37490.99,25737.1,29352.81,15004.54,8220.48
1389586.9676,4355.43,15390.73,36332.33,37451.7,25710.06,29397.63,15241.29,8197.88
1389586.9696,4328.87,15473.03,36302.95,37400.77,25690.7,29390.05,15340.95,8178.76
1389586.9716,3581.91,15432.26,36279.4,37371.31,25683.64,29317.67,15229.66,8170.13
1389586.9736,2420.85,15244.15,36286.5,37389.57,25709.68,29235.03,14941.36,8200.88
1389586.9756,1680.8,15037.54,36316.69,37426.62,25753.17,29186.68,14663.65,8236.93
1389586.9776,1875.02,14963.87,36349.49,37468.1,25780.35,29206.37,14559.7,8255.67
1389586.9796,2655.41,15040.07,36371.38,37485.03,25787.02,29274.42,14676.81,8258.01
1389586.9816,3518.25,15171.96,36362.37,37465.86,25762.27,29326.3,14909.89,8251.1
1389586.9836,4250.0,15339.66,36328.61,37429.15,25717.79,29367.36,15164.52,8217.96
1389586.9856,4398.25,15446.57,36299.14,37404.26,25684.12,29370.65,15314.01,8177.09
1389586.9876,3922.99,15462.07,36284.12,37397.1,25670.67,29336.55,15299.27,8151.72
1389586.9896,2801.18,15315.53,36286.64,37405.78,25691.42,29262.45,15048.79,8174.71
1389586.9916,1840.4,15089.94,36307.24,37427.57,25737.38,29194.26,14726.55,8218.0
1389586.9936,1702.88,14965.11,36347.06,37469.11,25785.12,29199.94,14562.94,8267.69
1389586.9956,2383.33,15000.11,36367.75,37485.75,25795.18,29250.77,14632.18,8281.18
1389586.9976,3204.01,15105.39,36364.99,37470.15,25775.96,29306.27,14830.3,8259.82
1389586.9996,4043.77,15274.62,36348.3,37440.45,25736.76,29349.28,15089.08,8216.48
1389587.0016,4395.91,15413.67,36320.12,37404.83,25697.28,29363.73,15281.11,8176.85
1389587.0036,4163.89,15467.03,36295.75,37381.46,25672.01,29339.36,15328.22,8149.91
1389587.0056,3192.52,15375.47,36298.76,37391.52,25684.79,29273.08,15149.4,8161.59
1389587.0076,2095.27,15172.58,36324.31,37429.34,25734.81,29210.38,14839.6,8210.47
1389587.0096,1628.97,14989.81,36354.12,37465.58,25773.19,29188.35,14601.18,8250.29
1389587.0116,2104.66,14976.88,36372.86,37494.52,25789.93,29221.97,14594.94,8263.54
1389587.0136,2903.89,15066.1,36372.62,37488.8,25783.49,29276.42,14778.0,8255.2
1389587.0156,3788.76,15226.51,36361.89,37452.89,25763.09,29340.18,15035.87,8238.51
1389587.0176,4346.99,15390.78,36337.95,37420.23,25732.33,29380.42,15250.64,8212.47
1389587.0196,4317.33,15467.69,36303.1,37393.53,25693.85,29366.69,15314.87,8178.62
1389587.0216,3577.04,15421.11,36284.26,37383.32,25683.45,29304.08,15214.21,8160.78
1389587.0236,2412.37,15238.1,36296.04,37400.49,25713.16,29224.59,14926.48,8191.4
1389587.0256,1666.31,15022.66,36325.36,37438.3,25754.41,29176.95,14637.76,8233.12
1389587.0276,1858.57,14951.99,36351.45,37468.39,25775.58,29193.74,14548.59,8256.96
1389587.0296,2622.75,15013.41,36358.65,37468.2,25772.43,29249.72,14674.57,8254.1
1389587.0316,3487.44,15149.88,36347.54,37443.45,25748.07,29310.42,14898.49,8220.05
1389587.0336,4211.28,15315.58,36328.65,37416.99,25718.74,29356.2,15144.3,8172.89
1389587.0356,4384.04,15428.12,36300.33,37392.29,25693.47,29362.78,15293.5,8136.61
1389587.0376,3902.86,15437.27,36283.74,37375.41,25686.65,29330.78,15276.82,8130.6
1389587.0396,2793.98,15300.85,36280.35,37381.46,25702.15,29253.87,15032.96,8157.11
1389587.0416,1830.63,15084.6,36308.39,37417.56,25740.2,29197.27,14722.59,8212.09
1389587.0436,1705.89,14963.25,36348.59,37461.24,25778.01,29203.32,14566.23,8256.39
1389587.0456,2351.76,14984.94,36367.95,37478.12,25784.11,29252.96,14639.43,8263.16
1389587.0476,3207.83,15112.83,36375.0,37476.97,25773.77,29320.86,14850.43,8256.63
1389587.0496,4038.62,15280.53,36360.08,37454.99,25740.96,29378.8,15097.52,8226.01
1389587.0516,4414.46,15413.43,36315.92,37401.92,25691.23,29386.95,15270.85,8178.38
1389587.0536,4149.01,15449.72,36284.02,37366.54,25669.05,29348.42,15308.67,8152.15
1389587.0556,3214.36,15371.23,36277.01,37365.06,25682.98,29282.91,15150.22,8160.83
1389587.0576,2088.79,15172.34,36305.53,37399.06,25730.9,29225.59,14856.63,8208.23
1389587.0596,1654.53,15006.78,36344.48,37444.02,25775.63,29213.48,14624.65,8250.67
1389587.0616,2088.93,14976.55,36366.32,37462.57,25784.11,29243.0,14587.36,8258.87
1389587.0636,2918.77,15068.91,36372.76,37462.62,25773.58,29287.1,14749.34,8245.52
1389587.0656,3765.25,15213.44,36357.98,37442.59,25742.77,29333.93,14989.04,8217.05
1389587.0676,4357.48,15373.66,36326.46,37403.4,25700.76,29361.39,15209.39,8180.33
1389587.0696,4302.69,15448.05,36291.89,37372.64,25672.96,29352.0,15296.75,8146.05
1389587.0716,3612.18,15425.64,36283.31,37386.33,25678.73,29311.57,15217.88,8148.62
1389587.0736,2432.39,15261.13,36312.73,37426.19,25729.09,29252.29,14943.51,8201.74
1389587.0756,1712.32,15064.58,36354.02,37471.3,25776.58,29213.86,14665.18,8256.48
1389587.0776,1856.37,14980.94,36375.77,37496.48,25797.51,29218.63,14566.28,8276.42
1389587.0796,2637.43,15031.39,36368.33,37483.65,25783.83,29250.34,14684.49,8254.91
1389587.0816,3471.9,15161.52,36359.31,37457.04,25760.65,29316.57,14911.89,8227.35
1389587.0836,4238.65,15334.85,36340.96,37426.76,25724.51,29372.41,15166.19,8194.69
1389587.0856,4387.19,15447.09,36316.78,37402.06,25695.23,29384.09,15318.54,8163.26
1389587.0876,3946.64,15465.4,36302.24,37408.17,25687.27,29342.18,15302.23,8145.14
1389587.0896,2813.15,15322.21,36295.61,37408.83,25701.67,29251.25,15052.94,8167.22
1389587.0916,1849.99,15101.01,36312.87,37427.91,25741.53,29190.59,14739.66,8211.52
1389587.0936,1682.52,14973.69,36341.81,37450.17,25776.1,29190.11,14582.73,8233.45
1389587.0956,2348.09,14994.96,36358.17,37458.38,25779.63,29238.7,14653.11,8233.98
1389587.0976,3175.16,15107.06,36354.02,37449.7,25759.7,29298.79,14850.95,8231.26
1389587.0996,4021.84,15273.76,36341.91,37432.34,25732.23,29362.4,15081.12,8216.38
1389587.1016,4402.3,15421.77,36317.83,37399.87,25702.1,29385.71,15273.24,8195.88
1389587.1036,4164.65,15464.69,36292.51,37377.55,25679.31,29361.87,15318.49,8175.52
1389587.1056,3227.66,15385.58,36282.97,37384.23,25683.69,29292.92,15148.55,8177.62
1389587.1076,2096.61,15175.01,36300.81,37413.55,25722.94,29222.21,14837.79,8218.67
1389587.1096,1633.22,15010.79,36340.67,37460.24,25772.24,29200.37,14612.1,8259.73
1389587.1116,2080.97,14988.95,36370.19,37485.13,25791.46,29237.89,14598.28,8272.22
1389587.1136,2917.81,15085.37,36373.38,37476.93,25777.25,29299.21,14770.32,8255.67
1389587.1156,3780.41,15231.66,36366.18,37455.94,25751.02,29363.68,15012.31,8224.49
1389587.1176,4380.42,15403.51,36345.53,37425.09,25715.83,29401.12,15252.31,8192.49
1389587.1196,4332.59,15476.61,36320.36,37396.01,25689.22,29396.25,15354.68,8170.27
1389587.1216,3644.28,15452.72,36304.62,37390.09,25686.08,29339.56,15267.09,8167.22
1389587.1236,2443.12,15266.75,36312.3,37409.02,25718.74,29256.63,14968.92,8193.4
1389587.1256,1710.7,15067.72,36341.34,37458.57,25763.42,29211.05,14684.15,8232.45
1389587.1276,1841.74,14977.65,36365.89,37489.32,25789.55,29220.44,14579.2,8266.35
1389587.1296,2639.96,15038.44,36366.28,37486.37,25776.58,29274.94,14697.36,8262.06
1389587.1316,3459.5,15163.61,36359.84,37461.24,25748.64,29334.83,14915.42,8241.51
1389587.1336,4239.37,15346.34,36342.15,37425.47,25713.4,29379.85,15177.01,8196.16
1389587.1356,4377.75,15452.39,36309.82,37391.09,25686.93,29375.03,15331.7,8166.74
1389587.1376,3961.61,15482.09,36295.94,37387.33,25686.7,29334.6,15318.16,8171.18
1389587.1396,2824.83,15342.71,36300.57,37408.45,25711.92,29259.69,15069.44,8192.16
1389587.1416,1881.74,15131.62,36329.66,37460.0,25749.26,29207.09,14756.73,8209.85
1389587.1436,1676.94,14994.34,36366.75,37508.3,25787.55,29205.75,14579.58,8238.6
1389587.1456,2366.54,15020.28,36382.73,37526.18,25794.13,29255.06,14641.24,8242.08
1389587.1476,3178.88,15131.86,36382.35,37512.83,25782.25,29318.96,14843.75,8251.19
1389587.1496,4056.88,15313.05,36367.66,37484.27,25754.41,29384.66,15112.12,8250.29
1389587.1516,4413.75,15447.19,36339.95,37430.15,25720.79,29402.88,15308.14,8229.45
1389587.1536,4209.47,15493.82,36309.68,37386.18,25692.61,29363.16,15339.52,8200.17
1389587.1556,3245.74,15404.66,36297.85,37375.03,25692.18,29289.11,15152.89,8195.69
1389587.1576,2138.33,15195.42,36313.92,37404.16,25725.22,29217.68,14826.92,8224.2
1389587.1596,1626.63,15016.46,36345.44,37447.5,25770.81,29191.21,14591.74,8260.78
1389587.1616,2089.21,14999.01,36376.86,37480.12,25795.84,29228.88,14585.78,8282.71
1389587.1636,2892.45,15087.99,36376.77,37476.02,25787.88,29282.33,14756.35,8274.99
1389587.1656,3782.13,15239.53,36360.41,37457.28,25755.46,29335.93,14996.34,8247.28
1389587.1676,4353.43,15398.17,36328.65,37422.23,25718.12,29367.69,15221.41,8210.61
1389587.1696,4345.94,15479.57,36306.43,37401.06,25695.47,29366.5,15330.03,8180.29
1389587.1716,3641.18,15449.43,36293.18,37399.44,25686.79,29316.1,15242.39,8165.55
1389587.1736,2478.08,15271.86,36310.25,37423.57,25714.35,29242.95,14955.47,8191.06
1389587.1756,1700.74,15066.15,36342.2,37461.24,25758.41,29196.31,14667.99,8239.79
1389587.1776,1854.56,14985.94,36375.53,37501.48,25789.84,29213.15,14573.15,8271.36
1389587.1796,2625.08,15051.8,36384.54,37505.25,25792.65,29274.13,14708.9,8268.93
1389587.1816,3472.23,15171.1,36365.08,37468.82,25765.09,29322.63,14921.24,8230.26
1389587.1836,4226.97,15343.95,36342.29,37432.1,25730.9,29362.44,15154.98,8195.31
1389587.1856,4403.21,15460.97,36320.26,37409.93,25703.72,29365.16,15327.98,8177.71
1389587.1876,3967.0,15486.34,36302.52,37402.68,25686.65,29329.3,15320.26,8171.23
1389587.1896,2848.1,15344.43,36299.47,37410.74,25696.33,29246.95,15063.29,8190.78
1389587.1916,1865.24,15126.23,36323.98,37448.65,25737.96,29192.4,14730.55,8233.83
1389587.1936,1686.24,14996.67,36367.13,37502.72,25785.74,29206.47,14561.23,8275.94
1389587.1956,2354.34,15029.15,36389.55,37523.04,25800.66,29261.4,14633.85,8274.6
1389587.1976,3182.32,15139.49,36389.36,37509.35,25789.26,29321.15,14829.92,8254.58
1389587.1996,4038.91,15309.05,36370.42,37474.49,25754.12,29377.08,15090.99,8231.31
1389587.2016,4420.71,15444.19,36339.91,37440.97,25718.6,29400.4,15296.6,8200.41
1389587.2036,4222.01,15510.7,36319.59,37425.24,25702.24,29379.51,15358.74,8185.77
1389587.2056,3287.6,15435.79,36317.07,37428.96,25716.16,29317.53,15197.23,8204.08
1389587.2076,2169.85,15237.38,36341.43,37453.13,25760.8,29255.68,14893.58,8245.76
1389587.2096,1656.01,15046.41,36376.77,37491.04,25803.9,29232.93,14644.43,8285.14
1389587.2116,2101.85,15018.99,36399.75,37517.84,25815.97,29269.36,14622.88,8298.11
1389587.2136,2904.51,15100.0,36400.47,37504.49,25801.28,29322.01,14781.52,8288.19
1389587.2156,3796.2,15261.89,36388.88,37486.65,25774.67,29375.37,15030.29,8255.48
1389587.2176,4390.91,15425.49,36366.37,37462.19,25743.96,29412.56,15271.95,8209.9
1389587.2196,4380.23,15499.83,36327.8,37423.52,25710.87,29403.88,15371.18,8180.29
1389587.2216,3675.18,15464.64,36310.58,37414.98,25706.96,29349.28,15267.99,8187.58
1389587.2236,2507.16,15287.64,36313.68,37438.25,25733.57,29268.65,14972.5,8212.71
1389587.2256,1712.51,15075.11,36342.43,37470.35,25777.39,29223.35,14681.39,8261.01
1389587.2276,1863.86,15007.35,36381.82,37514.02,25810.91,29237.7,14588.98,8307.17
1389587.2296,2615.21,15058.28,36386.16,37505.44,25797.75,29283.0,14703.56,8298.59
1389587.2316,3468.8,15179.97,36366.42,37472.49,25763.8,29326.25,14915.61,8250.48
1389587.2336,4209.71,15344.76,36341.86,37432.39,25727.13,29372.98,15168.62,8207.23
1389587.2356,4418.56,15467.31,36316.16,37401.16,25696.57,29381.56,15331.03,8182.91
1389587.2376,3961.85,15475.66,36289.65,37381.7,25675.92,29334.6,15310.91,8164.45
1389587.2396,2871.32,15349.34,36286.69,37389.95,25691.7,29258.87,15084.03,8182.72
1389587.2416,1868.63,15130.09,36312.68,37428.81,25735.29,29201.42,14765.31,8225.25
1389587.2436,1689.62,15000.39,36354.36,37481.07,25780.97,29202.18,14580.92,8263.83
1389587.2456,2318.62,15014.7,36371.04,37492.66,25794.94,29255.16,14625.03,8270.26
1389587.2476,3166.82,15117.31,36359.22,37477.69,25777.25,29310.28,14822.29,8247.95
1389587.2496,3999.23,15271.57,36331.13,37442.69,25736.14,29356.72,15072.97,8210.37
1389587.2516,4407.69,15418.1,36299.04,37398.63,25692.18,29377.65,15276.82,8178.43
1389587.2536,4178.91,15473.42,36283.83,37373.93,25676.16,29360.58,15329.46,8166.31
1389587.2556,3286.98,15404.51,36284.02,37382.46,25690.7,29302.17,15170.77,8179.71
1389587.2576,2141.09,15193.89,36304.1,37413.36,25730.95,29234.08,14858.15,8206.8
1389587.2596,1651.48,15018.89,36342.15,37461.76,25770.57,29205.09,14622.98,8237.55
1389587.2616,2053.4,14986.52,36369.23,37489.47,25790.03,29229.64,14600.8,8255.58
1389587.2636,2885.06,15075.73,36372.81,37481.36,25783.92,29288.63,14769.65,8257.39
1389587.2656,3735.59,15221.88,36358.65,37453.47,25759.22,29352.72,15017.75,8242.89
1389587.2676,4360.29,15387.58,36325.46,37416.41,25718.02,29389.96,15254.4,8209.04
1389587.2696,4325.82,15462.83,36284.36,37376.46,25683.69,29380.85,15352.63,8175.71
1389587.2716,3663.25,15435.94,36267.86,37366.92,25675.82,29324.06,15266.18,8162.55
1389587.2736,2483.32,15263.94,36285.45,37394.81,25708.2,29246.52,14985.85,8191.4
1389587.2756,1723.1,15060.38,36317.73,37441.07,25753.93,29193.98,14691.55,8231.69
1389587.2776,1815.7,14969.54,36344.39,37475.54,25775.82,29199.56,14554.5,8249.57
1389587.2796,2600.57,15027.1,36360.89,37485.89,25773.0,29264.41,14679.0,8249.19
1389587.2816,3434.9,15161.37,36355.21,37465.82,25752.4,29327.78,14911.37,8233.98
1389587.2836,4216.15,15335.32,36334.19,37433.77,25720.22,29377.51,15165.47,8207.85
1389587.2856,4391.0,15445.81,36301.43,37389.24,25686.6,29386.19,15318.11,8170.89
1389587.2876,3978.54,15465.5,36286.02,37383.51,25680.93,29349.33,15309.62,8150.96
1389587.2896,2879.57,15339.85,36286.6,37394.96,25701.19,29262.69,15079.45,8153.82
1389587.2916,1889.52,15118.7,36310.25,37431.05,25744.68,29200.27,14773.08,8197.12
1389587.2936,1672.7,14979.94,36342.01,37470.01,25778.92,29196.69,14600.66,8236.12
1389587.2956,2305.98,14998.68,36368.04,37478.64,25790.17,29247.48,14648.63,8254.86
1389587.2976,3143.41,15118.27,36375.1,37465.77,25783.88,29317.43,14841.37,8261.59
1389587.2996,4002.71,15288.45,36365.04,37442.26,25757.27,29374.13,15089.13,8250.14
1389587.3016,4398.73,15428.97,36322.31,37398.53,25710.73,29377.42,15286.4,8210.04
1389587.3036,4183.34,15470.89,36289.98,37380.56,25679.83,29356.67,15335.13,8176.76
1389587.3056,3289.37,15403.8,36288.27,37395.53,25687.55,29288.53,15186.5,8173.9
1389587.3076,2142.33,15187.65,36310.77,37422.52,25724.51,29210.67,14864.3,8207.99
1389587.3096,1634.26,15012.41,36342.34,37453.61,25770.48,29183.68,14616.21,8253.96
1389587.3116,2032.76,14987.28,36376.67,37479.02,25795.08,29218.3,14587.21,8283.23
1389587.3136,2866.7,15081.36,36384.49,37467.15,25782.73,29283.91,14752.72,8270.88
1389587.3156,3718.76,15225.08,36373.81,37444.64,25753.74,29346.66,14995.96,8236.79
1389587.3176,4339.98,15389.59,36335.19,37406.97,25712.02,29370.98,15222.41,8190.82
1389587.3196,4318.57,15462.21,36303.72,37384.23,25693.85,29362.16,15321.97,8167.32
1389587.3216,3683.0,15443.18,36290.03,37389.43,25694.18,29312.09,15246.39,8165.6
1389587.3236,2485.08,15259.41,36296.52,37405.69,25720.31,29232.22,14962.63,8192.44
1389587.3256,1733.26,15068.15,36334.76,37455.9,25769.86,29196.08,14689.16,8227.68
1389587.3276,1810.17,14973.4,36366.51,37488.99,25798.61,29206.66,14570.19,8253.0
1389587.3296,2595.23,15035.2,36373.67,37483.98,25788.45,29265.65,14687.83,8254.48
1389587.3316,3415.97,15160.04,36363.27,37465.72,25764.56,29326.59,14908.98,8241.7
1389587.3336,4220.49,15341.57,36341.43,37442.69,25728.13,29377.37,15173.39,8213.71
1389587.3356,4392.77,15453.15,36313.82,37409.69,25698.0,29387.76,15331.65,8192.25
1389587.3376,4007.77,15481.52,36295.85,37397.2,25687.51,29354.05,15327.84,8183.48
1389587.3396,2878.95,15343.1,36287.55,37396.96,25698.19,29269.22,15094.14,8194.64
1389587.3416,1906.68,15131.52,36305.38,37424.95,25732.81,29198.41,14784.24,8223.01
1389587.3436,1659.25,14988.0,36345.53,37467.39,25776.1,29192.98,14593.03,8257.91
1389587.3456,2318.1,15013.65,36372.14,37491.47,25792.22,29246.1,14635.66,8270.65
1389587.3476,3120.38,15115.69,36362.27,37473.4,25774.91,29306.42,14829.54,8246.28
1389587.3496,3997.76,15286.59,36343.72,37453.47,25741.82,29361.87,15093.95,8215.81
1389587.3516,4387.57,15431.55,36321.55,37421.99,25710.44,29394.34,15303.8,8191.16
1389587.3536,4225.87,15493.2,36309.06,37405.45,25692.04,29384.71,15374.61,8174.09
1389587.3556,3306.1,15414.38,36302.62,37402.44,25693.75,29312.04,15211.58,8171.75
1389587.3576,2186.87,15203.67,36318.93,37427.0,25726.04,29228.36,14884.43,8197.69
1389587.3596,1637.13,15019.94,36353.07,37471.63,25770.33,29196.55,14626.84,8231.74
1389587.3616,2056.03,14989.33,36381.54,37502.44,25791.51,29230.22,14600.23,8265.64
1389587.3636,2850.53,15070.3,36381.25,37497.72,25785.12,29286.91,14761.02,8273.55
1389587.3656,3727.82,15213.68,36359.31,37465.29,25752.6,29344.47,14998.72,8248.52
1389587.3676,4332.83,15378.48,36331.85,37420.47,25718.93,29383.47,15234.47,8215.48
1389587.3696,4356.38,15463.59,36304.57,37388.62,25698.38,29378.7,15348.77,8187.49
1389587.3716,3682.33,15436.13,36282.73,37378.74,25688.79,29318.38,15258.36,8168.22
1389587.3736,2517.61,15263.13,36293.7,37407.59,25717.74,29242.9,14971.54,8182.15
1389587.3756,1717.76,15060.09,36326.51,37445.74,25761.99,29205.85,14691.64,8220.48
1389587.3776,1826.43,14978.17,36365.18,37477.4,25793.7,29231.27,14591.17,8262.11
1389587.3796,2585.55,15040.07,36377.1,37481.12,25793.84,29285.29,14716.91,8272.74
1389587.3816,3420.5,15153.93,36357.07,37456.66,25761.27,29329.21,14928.2,8245.14
1389587.3836,4190.97,15325.07,36330.47,37423.0,25721.46,29372.27,15169.34,8208.7
1389587.3856,4387.9,15439.8,36303.33,37394.29,25689.46,29384.52,15309.53,8179.33
1389587.3876,3992.27,15469.46,36283.45,37387.57,25677.21,29357.2,15313.05,8164.17
1389587.3896,2903.89,15341.95,36281.88,37400.54,25697.47,29275.95,15090.75,8170.7
1389587.3916,1911.59,15131.71,36310.15,37431.67,25743.58,29210.28,14786.2,8213.57
1389587.3936,1669.22,14982.61,36345.63,37472.44,25782.3,29203.85,14595.46,8261.82
1389587.3956,2301.07,14999.06,36363.27,37485.51,25787.83,29257.87,14640.29,8274.51
1389587.3976,3120.95,15103.58,36365.99,37475.78,25774.24,29326.01,14831.02,8267.93
1389587.3996,3992.8,15274.34,36353.5,37451.75,25742.72,29384.09,15088.51,8228.16
1389587.4016,4398.11,15415.86,36323.03,37411.98,25705.48,29394.06,15292.55,8177.33
1389587.4036,4224.35,15479.71,36295.37,37396.24,25685.69,29363.92,15356.3,8157.87
1389587.4056,3320.31,15405.99,36286.84,37405.07,25691.75,29297.21,15202.19,8167.74
1389587.4076,2186.44,15201.95,36303.33,37429.81,25722.7,29222.87,14889.48,8199.84
1389587.4096,1635.98,15010.07,36343.15,37475.02,25765.71,29201.08,14627.98,8248.09
1389587.4116,2042.72,14981.13,36363.7,37507.35,25786.21,29233.13,14607.81,8270.22
1389587.4136,2830.84,15054.13,36361.27,37489.28,25775.48,29291.44,14758.54,8256.2
1389587.4156,3698.64,15196.28,36345.34,37440.97,25740.58,29344.75,14977.36,8226.97
1389587.4176,4309.32,15362.79,36323.74,37391.14,25707.92,29392.53,15226.08,8197.98
1389587.4196,4344.37,15463.4,36301.19,37373.21,25684.65,29387.48,15361.31,8173.99
1389587.4216,3692.77,15443.04,36285.83,37371.35,25678.3,29338.79,15292.07,8167.41
1389587.4236,2540.25,15278.25,36293.08,37399.25,25706.01,29262.59,15012.46,8187.58
1389587.4256,1719.62,15062.52,36316.21,37429.34,25749.97,29207.66,14693.74,8226.3
1389587.4276,1821.33,14977.17,36345.96,37466.1,25782.02,29222.16,14576.72,8257.25
1389587.4296,2559.66,15026.62,36356.74,37471.25,25780.49,29281.43,14689.3,8257.2
1389587.4316,3411.44,15145.88,36345.39,37449.17,25750.35,29332.59,14896.87,8229.88
1389587.4336,4174.85,15315.44,36333.76,37425.67,25723.79,29382.38,15156.6,8206.27
1389587.4356,4407.69,15438.75,36304.91,37393.86,25693.85,29381.37,15326.41,8173.75
1389587.4376,3999.38,15466.55,36288.12,37386.33,25680.5,29358.82,15327.69,8156.44
1389587.4396,2944.52,15357.73,36297.47,37413.46,25706.1,29300.55,15101.01,8190.59
1389587.4416,1930.43,15143.83,36325.41,37452.37,25756.55,29245.76,14792.25,8237.89
1389587.4436,1694.11,14998.49,36350.06,37478.36,25785.64,29223.92,14599.99,8272.12
1389587.4456,2279.33,15002.3,36356.93,37475.3,25785.5,29251.72,14625.55,8268.5
1389587.4476,3121.71,15107.82,36352.59,37461.29,25767.0,29307.61,14815.14,8239.75
1389587.4496,3952.41,15264.13,36333.18,37426.14,25733.71,29351.19,15061.33,8215.14
1389587.4516,4404.83,15420.34,36313.92,37400.15,25705.77,29380.61,15276.48,8197.02
1389587.4536,4207.61,15475.66,36293.51,37381.46,25684.26,29366.21,15337.18,8179.38
1389587.4556,3340.1,15409.76,36287.79,37390.38,25683.88,29300.17,15188.46,8178.52
1389587.4576,2183.82,15208.91,36308.15,37426.38,25722.46,29233.65,14884.43,8218.48
1389587.4596,1652.15,15027.91,36338.86,37469.63,25769.0,29206.95,14639.86,8260.3
1389587.4616,2003.0,14982.42,36356.45,37486.7,25787.55,29231.12,14605.43,8275.08
1389587.4636,2831.6,15072.78,36364.75,37489.8,25785.31,29293.11,14768.94,8264.83
1389587.4656,3675.99,15215.45,36352.16,37471.82,25759.94,29347.09,14982.42,8230.11
1389587.4676,4331.26,15386.39,36326.7,37439.97,25726.94,29393.58,15223.89,8197.02
1389587.4696,4339.22,15471.89,36298.9,37404.11,25697.57,29389.81,15341.47,8181.29
1389587.4716,3733.59,15465.69,36295.94,37400.92,25694.04,29347.95,15276.05,8187.06
1389587.4736,2567.48,15308.53,36311.44,37422.38,25719.6,29278.95,15008.31,8209.28
1389587.4756,1764.11,15098.96,36334.66,37458.47,25756.55,29231.07,14715.01,8242.99
1389587.4776,1813.51,14995.72,36361.6,37485.65,25786.45,29236.37,14590.46,8270.88
1389587.4796,2564.24,15035.25,36367.95,37474.35,25792.79,29285.58,14692.69,8274.03
1389587.4816,3389.74,15155.36,36358.84,37447.27,25775.58,29336.65,14893.06,8256.58
1389587.4836,4183.44,15327.46,36341.72,37424.95,25745.97,29382.66,15144.16,8227.78
1389587.4856,4398.44,15448.33,36313.92,37391.57,25710.4,29381.42,15308.33,8193.06
1389587.4876,4021.12,15476.71,36300.43,37387.57,25703.34,29349.19,15309.48,8178.66
1389587.4896,2957.15,15367.7,36302.0,37398.72,25722.94,29278.14,15100.34,8193.21
1389587.4916,1937.72,15148.45,36323.69,37432.58,25761.89,29218.39,14787.15,8231.97
1389587.4936,1676.66,15008.74,36362.22,37483.6,25805.76,29211.95,14595.56,8277.56
1389587.4956,2276.52,15013.74,36381.73,37502.01,25821.31,29258.02,14632.13,8292.2
1389587.4976,3113.32,15126.61,36381.92,37502.53,25811.44,29320.86,14831.93,8271.27
1389587.4996,3970.91,15287.07,36368.57,37485.79,25782.21,29379.42,15093.14,8237.74
1389587.5016,4412.03,15428.69,36333.09,37436.25,25734.14,29397.4,15301.99,8201.65
1389587.5036,4225.21,15475.27,36307.86,37402.73,25709.3,29376.56,15355.78,8193.3
1389587.5056,3362.94,15418.1,36305.29,37409.74,25718.41,29314.28,15200.95,8197.55
1389587.5076,2198.6,15212.06,36322.74,37434.01,25761.8,29241.57,14880.95,8225.87
1389587.5096,1642.75,15030.29,36351.97,37480.6,25803.09,29209.52,14641.19,8273.27
1389587.5116,1999.52,14995.1,36392.41,37525.32,25832.13,29249.48,14611.15,8313.8
1389587.5136,2853.49,15104.58,36417.77,37536.58,25840.57,29328.3,14783.15,8323.24
1389587.5156,3699.54,15241.39,36400.99,37495.47,25810.63,29386.43,15015.32,8298.3
1389587.5176,4342.56,15400.55,36364.23,37448.17,25757.41,29415.75,15249.78,8249.52
1389587.5196,4339.36,15470.55,36329.51,37409.98,25724.18,29405.69,15350.73,8218.48
1389587.5216,3742.93,15461.49,36315.64,37405.97,25715.59,29360.11,15278.34,8200.98
1389587.5236,2544.78,15284.59,36315.11,37414.6,25736.95,29273.08,14992.67,8219.77
1389587.5256,1740.74,15078.55,36339.1,37445.41,25771.76,29214.34,14696.79,8262.11
1389587.5276,1774.93,14975.79,36371.24,37482.5,25807.24,29226.45,14568.47,8299.73
1389587.5296,2563.19,15037.97,36384.06,37493.09,25811.39,29283.24,14680.48,8302.26
1389587.5316,3377.06,15154.51,36373.24,37476.07,25793.98,29341.37,14893.68,8275.56
1389587.5336,4185.92,15327.84,36345.06,37442.16,25753.88,29382.76,15152.79,8230.02
1389587.5356,4390.67,15443.18,36313.68,37398.49,25724.75,29381.33,15318.49,8204.41
1389587.5376,4048.3,15481.52,36298.42,37383.85,25711.59,29352.91,15331.22,8195.88
1389587.5396,2942.04,15353.16,36294.37,37387.47,25726.08,29273.99,15109.64,8206.8
1389587.5416,1948.55,15143.21,36323.22,37435.06,25767.28,29215.29,14794.78,8232.64
1389587.5436,1644.56,14986.71,36355.45,37480.55,25799.9,29205.66,14584.97,8266.64
1389587.5456,2275.85,15002.25,36380.01,37499.34,25808.81,29253.53,14620.97,8281.28
1389587.5476,3083.52,15108.83,36379.25,37479.93,25795.84,29316.52,14815.28,8272.12
1389587.5496,3968.67,15280.92,36363.03,37447.46,25765.71,29375.84,15085.56,8248.19
1389587.5516,4388.38,15427.69,36333.04,37415.89,25733.43,29404.55,15299.51,8218.24
1389587.5536,4252.39,15491.68,36311.77,37405.07,25715.16,29388.48,15360.64,8200.12
1389587.5556,3363.32,15420.72,36297.13,37404.21,25712.25,29316.86,15189.46,8199.41
1389587.5576,2230.36,15221.98,36320.31,37436.97,25744.54,29248.62,14877.23,8222.01
1389587.5596,1632.36,15025.14,36350.83,37469.11,25776.63,29203.8,14622.12,8255.82
1389587.5616,2009.82,14988.57,36382.25,37504.15,25798.37,29239.94,14590.17,8293.63
1389587.5636,2811.0,15074.11,36382.3,37497.14,25794.94,29304.79,14760.07,8295.11
1389587.5656,3682.57,15212.44,36357.45,37453.47,25764.13,29361.73,14991.33,8252.34
1389587.5676,4312.71,15370.28,36325.6,37410.26,25729.52,29384.19,15218.45,8215.76
1389587.5696,4362.49,15466.93,36303.72,37381.84,25706.1,29386.38,15341.86,8206.42
1389587.5716,3743.89,15466.12,36295.61,37384.09,25702.86,29348.28,15282.54,8207.61
1389587.5736,2582.6,15299.32,36306.58,37405.21,25728.94,29269.7,15009.21,8232.74
1389587.5756,1738.93,15082.17,36327.8,37432.06,25765.33,29209.09,14710.09,8268.21
1389587.5776,1776.98,14971.5,36353.88,37462.38,25792.17,29213.53,14569.24,8283.52
1389587.5796,2521.61,15021.95,36366.61,37464.34,25791.12,29271.18,14669.32,8267.59
1389587.5816,3373.53,15145.45,36360.22,37449.65,25771.43,29332.78,14888.72,8247.42
1389587.5836,4170.08,15321.83,36337.62,37430.48,25736.29,29382.09,15147.93,8213.62
1389587.5856,4390.91,15435.03,36304.62,37405.5,25702.91,29390.24,15310.0,8174.23
1389587.5876,4028.18,15466.64,36281.02,37396.77,25685.6,29361.3,15318.01,8167.51
1389587.5896,2968.69,15354.06,36283.07,37408.17,25705.96,29285.67,15102.91,8201.89
1389587.5916,1940.11,15146.54,36309.82,37430.05,25750.07,29217.63,14787.1,8247.28
1389587.5936,1645.99,14992.81,36346.96,37459.33,25789.22,29214.77,14582.59,8280.04
1389587.5956,2253.72,15007.78,36366.94,37475.73,25798.13,29264.84,14617.54,8279.28
1389587.5976,3069.93,15101.15,36364.85,37467.01,25780.73,29321.24,14806.37,8262.54
1389587.5996,3948.26,15270.19,36349.59,37446.03,25750.26,29381.71,15068.34,8235.07
1389587.6016,4383.33,15413.57,36319.69,37407.69,25715.02,29405.69,15273.76,8205.08
1389587.6036,4234.12,15474.51,36290.22,37377.6,25686.7,29386.71,15342.76,8179.33
1389587.6056,3360.18,15409.71,36278.54,37381.03,25688.94,29317.72,15201.38,8180.19
1389587.6076,2222.87,15216.73,36290.41,37414.03,25725.22,29237.32,14902.16,8210.37
1389587.6096,1620.48,15017.18,36319.31,37461.91,25770.86,29202.94,14640.76,8247.9
1389587.6116,1975.97,14969.54,36341.48,37485.08,25790.41,29228.88,14591.84,8263.78
1389587.6136,2771.28,15053.04,36354.4,37482.55,25791.36,29301.36,14742.09,8261.35
1389587.6156,3660.63,15210.53,36348.59,37456.95,25767.0,29369.83,14990.81,8248.19
1389587.6176,4295.11,15369.04,36321.07,37417.32,25725.32,29393.63,15212.35,8218.24
1389587.6196,4342.37,15460.78,36290.36,37383.51,25692.08,29380.75,15319.25,8197.36
1389587.6216,3724.91,15445.9,36279.68,37375.41,25686.51,29334.98,15264.89,8194.73
1389587.6236,2585.03,15288.97,36292.56,37394.67,25715.54,29255.49,15010.12,8222.87
1389587.6256,1732.3,15074.06,36324.93,37428.72,25764.09,29205.14,14713.58,8264.92
1389587.6276,1775.88,14974.69,36355.5,37463.1,25797.89,29215.05,14570.76,8290.96
1389587.6296,2509.07,15024.38,36369.71,37477.74,25807.48,29277.33,14665.46,8296.06
1389587.6316,3378.11,15163.33,36367.47,37471.73,25788.31,29347.71,14895.3,8278.51
1389587.6336,4159.59,15331.99,36343.34,37436.35,25750.16,29398.54,15151.12,8226.92
1389587.6356,4431.15,15469.46,36323.79,37408.88,25718.88,29419.33,15336.42,8189.01
1389587.6376,4061.27,15500.12,36315.16,37408.17,25706.77,29388.91,15349.49,8191.3
1389587.6396,3014.8,15378.72,36305.96,37410.5,25718.74,29303.41,15125.32,8205.89
1389587.6416,1952.51,15149.31,36315.97,37428.81,25753.93,29225.69,14779.28,8236.89
1389587.6436,1665.45,14997.96,36337.67,37459.66,25783.35,29202.94,14574.1,8264.83
1389587.6456,2238.18,15006.97,36358.17,37475.02,25792.65,29248.38,14617.35,8278.23
1389587.6476,3089.19,15116.12,36363.08,37468.68,25782.35,29309.71,14812.33,8268.07
1389587.6496,3933.48,15269.42,36346.44,37439.49,25752.69,29361.63,15052.13,8237.32
1389587.6516,4407.41,15417.01,36314.63,37406.88,25713.83,29382.52,15263.89,8200.03
1389587.6536,4235.36,15475.18,36286.36,37388.0,25692.85,29361.63,15330.84,8178.81
1389587.6556,3409.24,15429.4,36289.51,37399.49,25705.53,29306.18,15199.81,8187.49
1389587.6576,2238.7,15232.8,36306.62,37419.61,25742.44,29230.55,14890.1,8221.2
1389587.6596,1660.35,15040.35,36339.67,37450.7,25780.16,29201.51,14633.56,8264.21
1389587.6616,1978.92,14996.01,36369.61,37481.46,25804.0,29238.04,14592.03,8289.1
1389587.6636,2805.61,15078.12,36377.01,37481.93,25797.56,29307.94,14751.53,8285.43
1389587.6656,3655.24,15218.36,36360.6,37456.14,25768.95,29367.83,14983.89,8256.15
1389587.6676,4333.02,15385.11,36335.9,37431.39,25736.86,29399.73,15220.6,8217.67
1389587.6696,4356.29,15468.41,36296.75,37393.34,25702.0,29368.83,15329.74,8179.57
1389587.6716,3775.93,15460.45,36289.36,37390.86,25691.94,29322.77,15271.62,8165.17
1389587.6736,2611.07,15308.38,36306.39,37418.42,25720.93,29255.58,15017.13,8204.18
1389587.6756,1773.88,15104.49,36337.28,37465.72,25766.09,29211.48,14724.78,8265.73
1389587.6776,1784.23,15004.73,36368.85,37496.86,25800.9,29223.06,14589.12,8309.13
1389587.6796,2532.77,15047.12,36380.25,37493.33,25804.95,29285.15,14690.64,8309.08
1389587.6816,3364.71,15164.04,36367.13,37466.1,25778.63,29337.12,14900.5,8280.09
1389587.6836,4168.18,15331.94,36345.2,37434.2,25740.2,29373.94,15151.93,8243.8
1389587.6856,4418.8,15458.97,36317.4,37403.25,25707.06,29390.96,15324.79,8208.75
1389587.6876,4064.99,15486.77,36298.66,37389.0,25694.75,29364.35,15339.28,8192.97
1389587.6896,3018.24,15378.72,36297.99,37390.38,25708.82,29291.44,15129.19,8197.02
1389587.6916,1970.05,15157.22,36315.59,37425.67,25750.12,29223.64,14797.36,8228.06
1389587.6936,1663.02,15005.07,36349.92,37464.81,25786.93,29206.8,14585.69,8262.21
1389587.6956,2233.46,15001.3,36370.19,37477.64,25795.8,29249.53,14616.78,8272.32
1389587.6976,3071.5,15112.31,36372.05,37463.53,25788.36,29317.67,14818.29,8261.25
1389587.6996,3932.24,15271.47,36351.11,37435.87,25759.56,29377.23,15071.2,8226.25
1389587.7016,4415.46,15432.74,36319.07,37412.31,25721.51,29408.22,15291.07,8184.72
1389587.7036,4265.45,15493.54,36298.47,37396.96,25700.29,29398.06,15355.11,8161.93
1389587.7056,3436.76,15434.46,36284.74,37397.82,25698.95,29325.92,15211.92,8161.97
1389587.7076,2268.03,15236.09,36308.34,37427.62,25742.15,29252.72,14909.65,8221.2
1389587.7096,1686.33,15061.09,36351.73,37478.36,25795.46,29224.16,14655.97,8284.71
1389587.7116,1993.7,15011.93,36383.92,37499.77,25820.26,29258.78,14602.52,8319.76
1389587.7136,2816.06,15089.23,36377.72,37471.97,25803.81,29317.57,14751.72,8305.26
1389587.7156,3651.76,15216.16,36358.31,37445.03,25770.38,29361.68,14968.92,8261.01
1389587.7176,4337.98,15386.34,36330.23,37416.65,25729.71,29393.06,15211.87,8211.57
1389587.7196,4367.83,15470.22,36298.04,37391.43,25695.66,29381.66,15332.03,8183.05
1389587.7216,3799.63,15473.56,36284.98,37390.57,25687.6,29327.11,15287.97,8182.34
1389587.7236,2613.59,15309.05,36295.94,37405.07,25716.21,29252.1,15017.61,8211.76
1389587.7256,1791.38,15109.49,36330.51,37443.93,25760.18,29209.43,14719.87,8255.86
1389587.7276,1775.46,15004.45,36367.95,37479.88,25792.46,29226.02,14599.37,8287.14
1389587.7296,2542.45,15061.67,36384.73,37480.02,25790.41,29287.48,14728.93,8277.75
1389587.7316,3347.54,15167.81,36368.99,37447.27,25765.33,29329.54,14918.95,8255.86
1389587.7336,4177.86,15336.9,36340.96,37418.56,25732.42,29381.8,15131.9,8229.92
1389587.7356,4417.13,15459.44,36316.88,37390.47,25710.97,29406.98,15284.35,8209.61
1389587.7376,4096.46,15493.87,36299.76,37381.27,25702.48,29378.27,15317.35,8192.59
1389587.7396,3020.05,15371.66,36293.89,37391.48,25717.31,29297.21,15105.44,8202.46
1389587.7416,2002.53,15161.9,36318.16,37426.67,25758.65,29226.97,14795.4,8236.22
1389587.7436,1663.59,15013.89,36362.32,37476.45,25807.29,29220.97,14597.37,8284.19
1389587.7456,2270.75,15027.29,36395.84,37510.16,25823.74,29271.7,14629.22,8306.55
1389587.7476,3069.69,15118.74,36395.32,37495.19,25800.47,29325.39,14808.85,8291.29
1389587.7496,3954.79,15279.01,36371.66,37469.82,25758.84,29374.94,15057.23,8251.24
1389587.7516,4401.68,15425.4,36338.62,37431.86,25719.74,29399.92,15267.23,8202.79
1389587.7536,4287.43,15484.91,36307.39,37397.91,25697.57,29383.81,15340.85,8173.94
1389587.7556,3430.41,15423.25,36289.03,37377.74,25697.52,29314.57,15197.61,8180.33
1389587.7576,2277.47,15225.17,36300.23,37396.91,25732.52,29237.56,14880.99,8218.15
1389587.7596,1657.15,15040.26,36337.09,37440.92,25782.87,29201.08,14621.26,8260.2
1389587.7616,1996.71,15000.11,36373.62,37481.74,25808.91,29231.03,14584.83,8281.9
1389587.7636,2785.44,15074.68,36374.14,37471.82,25797.85,29292.06,14742.66,8277.85
1389587.7656,3655.82,15219.74,36367.23,37454.85,25775.39,29352.0,14971.83,8264.26
1389587.7676,4324.1,15392.31,36348.49,37429.1,25743.68,29393.49,15214.87,8234.55
1389587.7696,4395.77,15483.57,36320.45,37398.91,25708.39,29390.24,15332.84,8203.17
1389587.7716,3811.31,15476.56,36300.43,37384.56,25692.7,29341.32,15274.67,8187.96
1389587.7736,2657.13,15318.11,36311.06,37412.31,25718.02,29272.23,15011.36,8208.18
1389587.7756,1803.11,15117.84,36346.34,37467.2,25767.76,29239.8,14722.3,8259.01
1389587.7776,1803.54,15006.45,36381.01,37502.67,25802.09,29251.39,14585.02,8289.62
1389587.7796,2526.47,15045.55,36387.92,37495.57,25798.51,29289.82,14673.62,8274.84
1389587.7816,3356.98,15158.94,36375.34,37461.71,25773.15,29335.17,14876.8,8258.53
1389587.7836,4177.86,15334.99,36355.93,37428.24,25749.02,29386.09,15138.87,8236.84
1389587.7856,4423.29,15443.61,36313.73,37382.08,25714.78,29383.52,15302.09,8195.31
1389587.7876,4088.21,15478.28,36284.55,37363.72,25695.71,29348.9,15311.29,8172.04
1389587.7896,3043.08,15367.99,36283.69,37375.74,25710.87,29281.29,15100.43,8190.54
1389587.7916,1999.09,15161.47,36306.58,37410.6,25746.49,29229.22,14792.73,8232.17
1389587.7936,1661.54,15005.45,36348.59,37458.09,25789.41,29222.63,14593.36,8266.74
1389587.7956,2248.0,15018.99,36374.24,37480.93,25802.66,29268.55,14635.61,8279.37
1389587.7976,3051.42,15110.59,36367.9,37464.1,25784.3,29313.85,14809.28,8266.16
1389587.7996,3925.37,15271.67,36348.44,37434.25,25753.07,29359.63,15044.12,8242.51
1389587.8016,4405.17,15431.88,36335.52,37412.36,25730.95,29407.46,15272.95,8220.24
1389587.8036,4302.5,15508.32,36318.4,37401.78,25712.02,29394.01,15359.5,8189.49
1389587.8056,3465.41,15447.28,36308.39,37408.74,25706.91,29329.78,15231.37,8169.89
1389587.8076,2307.32,15248.97,36314.78,37435.82,25729.23,29249.05,14925.29,8190.73
1389587.8096,1672.41,15054.51,36352.69,37495.19,25780.73,29214.77,14660.88,8249.47
1389587.8116,2002.43,15007.21,36381.96,37519.41,25807.72,29242.42,14592.89,8293.01
1389587.8136,2784.63,15075.02,36381.34,37488.66,25796.18,29302.74,14723.49,8290.2
1389587.8156,3652.48,15214.35,36360.46,37445.36,25762.61,29355.1,14960.72,8261.63
1389587.8176,4304.55,15366.56,36325.84,37404.4,25717.5,29382.85,15197.8,8222.91
1389587.8197,4388.43,15462.64,36298.37,37372.74,25688.27,29375.75,15323.93,8191.4
1389587.8217,3803.68,15456.82,36290.22,37368.06,25688.46,29332.59,15262.65,8179.71
1389587.8237,2666.52,15308.53,36303.72,37398.53,25716.21,29263.12,15000.3,8196.93
1389587.8257,1782.61,15091.18,36335.71,37436.2,25757.51,29213.81,14701.27,8232.79
1389587.8277,1785.85,14982.61,36364.7,37468.25,25787.31,29221.16,14561.51,8256.2
1389587.8297,2499.49,15023.66,36378.58,37475.54,25789.41,29274.04,14658.98,8261.63
1389587.8317,3358.03,15150.74,36373.95,37454.28,25770.48,29325.2,14873.36,8262.16
1389587.8337,4149.49,15321.69,36357.93,37423.81,25736.72,29381.52,15126.04,8242.37
1389587.8357,4439.78,15453.86,36323.98,37385.47,25705.29,29389.81,15303.9,8210.61
1389587.8377,4097.22,15487.29,36298.47,37364.96,25691.94,29363.73,15325.93,8181.24
1389587.8397,3080.42,15382.67,36298.42,37377.65,25704.05,29296.16,15127.14,8184.72
1389587.8417,2010.77,15173.1,36329.8,37415.94,25752.17,29246.76,14818.0,8243.23
1389587.8437,1696.11,15023.19,36368.52,37465.86,25799.47,29236.94,14610.58,8294.73
1389587.8457,2237.37,15018.18,36386.21,37484.79,25810.05,29276.8,14639.09,8300.11
1389587.8477,3069.93,15118.08,36385.11,37482.22,25794.75,29321.44,14824.68,8278.08
1389587.8497,3914.5,15268.33,36358.22,37454.85,25755.55,29366.07,15065.15,8230.93
1389587.8517,4418.42,15417.63,36319.69,37415.22,25709.97,29388.1,15272.09,8178.52
1389587.8537,4282.48,15478.57,36290.7,37388.23,25687.08,29373.89,15348.48,8144.52
1389587.8557,3480.24,15425.49,36281.16,37382.18,25689.27,29316.95,15221.88,8149.77
1389587.8577,2290.87,15227.41,36300.71,37400.06,25727.89,29242.85,14922.76,8198.07
1389587.8597,1677.85,15040.26,36340.67,37436.87,25775.1,29208.9,14657.31,8250.38
1389587.8617,1960.04,14983.94,36363.65,37460.81,25796.61,29232.93,14580.54,8277.46
1389587.8637,2774.62,15060.28,36369.52,37462.91,25787.02,29301.12,14721.06,8275.56
1389587.8657,3628.45,15205.1,36365.18,37447.27,25764.13,29367.16,14967.87,8259.25
1389587.8677,4331.78,15381.05,36345.92,37419.09,25731.04,29402.69,15210.68,8223.92
1389587.8697,4392.29,15476.85,36316.26,37384.09,25703.72,29400.5,15336.09,8193.06
1389587.8717,3839.92,15467.22,36296.8,37379.22,25694.28,29362.83,15292.36,8178.85
1389587.8737,2673.29,15306.19,36295.37,37392.53,25717.64,29287.25,15029.48,8198.31
1389587.8757,1795.44,15090.61,36318.45,37413.74,25758.79,29235.84,14726.55,8238.36
1389587.8777,1750.52,14973.59,36344.29,37446.26,25782.73,29220.68,14577.3,8268.45
1389587.8797,2477.46,15007.93,36356.5,37450.32,25778.92,29266.98,14664.89,8270.31
1389587.8817,3315.78,15131.19,36350.64,37432.87,25756.51,29331.74,14880.42,8244.09
1389587.8837,4131.6,15296.84,36329.18,37402.78,25717.55,29372.79,15128.57,8201.36
1389587.8857,4420.42,15430.21,36305.48,37376.31,25690.56,29398.59,15312.91,8177.42
1389587.8877,4102.23,15464.59,36288.31,37364.39,25678.59,29378.89,15333.61,8162.64
1389587.8897,3078.03,15367.94,36283.93,37374.41,25694.37,29298.07,15138.06,8165.74
1389587.8917,2006.86,15151.31,36306.72,37405.54,25738.53,29220.73,14811.23,8201.55
1389587.8937,1655.34,14990.28,36338.72,37445.5,25776.77,29204.32,14592.98,8241.46
1389587.8957,2199.94,14981.18,36360.46,37471.2,25785.12,29247.38,14613.06,8255.91
1389587.8977,3043.13,15090.9,36361.89,37465.67,25773.67,29310.04,14802.17,8250.19
1389587.8997,3903.77,15247.49,36346.82,37443.12,25750.83,29369.5,15049.98,8226.16
1389587.9017,4418.18,15411.43,36326.56,37410.79,25722.41,29406.46,15272.52,8194.26
1389587.9037,4295.54,15473.42,36306.0,37382.94,25702.43,29396.35,15351.34,8168.27
1389587.9057,3499.79,15427.31,36296.99,37387.52,25699.48,29329.07,15246.39,8164.07
1389587.9077,2302.55,15222.46,36307.39,37413.46,25728.85,29242.38,14944.84,8206.03
1389587.9097,1678.9,15032.39,36338.76,37446.46,25772.72,29207.23,14665.51,8264.83
1389587.9117,1938.49,14969.02,36368.04,37471.63,25794.27,29238.04,14571.48,8288.58
1389587.9137,2766.37,15049.75,36371.33,37466.63,25783.73,29299.93,14724.64,8264.73
1389587.9157,3598.12,15179.16,36354.02,37444.41,25760.56,29348.42,14945.79,8234.55
1389587.9177,4309.99,15354.3,36330.47,37419.37,25727.89,29381.95,15188.84,8204.13
1389587.9197,4370.4,15447.28,36304.91,37398.49,25697.76,29386.57,15327.65,8180.05
1389587.9217,3849.94,15457.3,36287.5,37392.19,25685.31,29338.7,15289.93,8163.88
1389587.9237,2661.99,15295.46,36285.79,37396.96,25706.96,29259.64,15020.37,8186.34
1389587.9257,1800.68,15082.17,36312.68,37423.76,25750.83,29212.62,14712.29,8231.69
1389587.9277,1733.92,14964.68,36347.35,37457.85,25785.4,29218.15,14557.74,8274.03
1389587.9297,2491.43,15022.47,36372.19,37470.63,25794.65,29284.24,14658.88,8291.53
1389587.9317,3306.48,15134.81,36366.99,37453.32,25776.01,29334.64,14868.21,8267.83
1389587.9337,4143.43,15302.42,36338.0,37417.37,25733.57,29362.97,15120.79,8223.73
1389587.9357,4400.16,15422.3,36303.67,37373.79,25698.95,29372.36,15302.76,8186.44
1389587.9377,4113.63,15461.54,36284.02,37358.05,25687.46,29348.28,15332.99,8172.42
1389587.9397,3073.88,15356.69,36283.07,37364.92,25705.05,29275.33,15139.01,8195.54
1389587.9417,2032.95,15148.55,36308.67,37397.77,25747.78,29217.53,14822.15,8235.65
1389587.9437,1642.61,14981.46,36341.62,37446.12,25785.45,29206.18,14580.68,8271.84
1389587.9457,2215.34,14991.62,36373.1,37478.5,25803.14,29259.88,14610.44,8291.63
1389587.9477,3032.26,15101.53,36381.68,37474.92,25795.56,29329.45,14812.57,8286.67
1389587.9497,3924.89,15263.37,36371.66,37454.61,25764.85,29369.79,15061.52,8255.77
1389587.9517,4405.4,15408.71,36340.62,37408.98,25723.51,29397.49,15276.58,8215.29
1389587.9537,4312.04,15476.85,36313.11,37384.13,25698.81,29382.8,15357.64,8183.53
1389587.9557,3504.99,15432.65,36303.0,37396.77,25703.81,29323.3,15230.75,8183.53
1389587.9577,2346.95,15241.48,36316.59,37424.71,25741.77,29246.48,14910.75,8219.77
1389587.9597,1675.65,15040.83,36342.53,37448.6,25785.02,29204.94,14639.05,8260.44
1389587.9617,1962.23,14983.18,36375.1,37478.17,25806.72,29232.12,14576.48,8287.67
1389587.9637,2748.92,15055.99,36378.1,37472.59,25796.37,29283.67,14714.29,8280.33
1389587.9657,3617.43,15199.28,36374.62,37452.99,25775.77,29346.8,14949.75,8253.62
1389587.9677,4309.23,15371.52,36351.21,37421.52,25740.77,29390.62,15201.71,8208.47
1389587.9697,4401.83,15462.92,36313.92,37385.75,25705.48,29386.14,15335.94,8160.26
1389587.9717,3854.85,15466.79,36297.71,37382.18,25696.95,29338.6,15293.31,8159.88
1389587.9737,2703.91,15311.48,36302.76,37401.63,25718.79,29257.68,15027.43,8201.84
1389587.9757,1811.98,15101.82,36330.37,37443.74,25760.8,29210.09,14727.74,8248.38
1389587.9777,1760.39,14983.7,36366.99,37482.98,25793.17,29221.01,14577.34,8287.29
1389587.9797,2485.94,15030.39,36384.06,37486.61,25798.85,29281.0,14673.14,8297.87
1389587.9817,3322.65,15150.22,36376.67,37461.09,25784.4,29344.42,14880.56,8271.74
1389587.9837,4148.39,15320.4,36349.68,37422.71,25746.44,29386.67,15128.85,8226.68
1389587.9857,4428.67,15435.27,36313.92,37385.71,25711.83,29384.95,15302.61,8189.82
1389587.9877,4133.03,15476.47,36295.8,37378.74,25697.0,29355.53,15331.51,8172.23
1389587.9897,3101.35,15364.7,36286.45,37380.08,25702.48,29279.38,15125.9,8179.62
1389587.9917,2043.15,15165.24,36310.87,37418.08,25744.87,29218.82,14821.01,8228.3
1389587.9937,1657.87,15001.68,36350.06,37457.76,25790.74,29212.91,14607.77,8277.46
1389587.9957,2214.96,15014.55,36385.4,37490.66,25812.39,29270.13,14648.39,8303.83
1389587.9977,3028.82,15109.54,36387.5,37477.31,25797.32,29329.45,14841.94,8281.66
1389587.9997,3913.55,15267.04,36367.13,37439.73,25761.8,29383.76,15080.22,8238.98
1389588.0017,4405.45,15410.28,36340.57,37403.4,25726.42,29417.18,15255.98,8201.41
1389588.0037,4311.71,15478.76,36313.92,37374.45,25702.53,29407.93,15331.51,8178.85
1389588.0057,3503.99,15430.4,36302.28,37371.35,25705.63,29340.56,15221.26,8187.29
1389588.0077,2348.09,15243.82,36313.4,37398.53,25741.53,29255.97,14927.2,8219.15
1389588.0097,1658.15,15030.48,36335.52,37431.63,25779.82,29205.42,14645.58,8257.15
1389588.0117,1944.54,14977.55,36365.61,37464.77,25800.23,29226.93,14575.67,8278.75
1389588.0137,2731.66,15050.79,36379.29,37464.72,25797.32,29283.1,14720.35,8276.85
1389588.0157,3617.95,15200.76,36373.33,37450.08,25773.53,29348.57,14962.48,8257.34
1389588.0177,4309.89,15366.79,36348.16,37413.27,25738.24,29393.91,15211.54,8214.71
1389588.0197,4416.94,15467.22,36315.73,37383.75,25704.53,29386.24,15349.1,8178.95
1389588.0217,3857.9,15464.31,36295.61,37374.55,25693.28,29337.84,15305.66,8177.09
1389588.0237,2725.79,15321.16,36300.62,37386.9,25717.79,29264.22,15052.08,8205.56
1389588.0257,1811.22,15103.87,36327.03,37419.94,25762.94,29214.19,14733.98,8251.48
1389588.0277,1760.39,14986.23,36358.27,37462.24,25795.89,29217.2,14576.77,8283.76
1389588.0297,2451.37,15020.28,36372.95,37475.64,25799.04,29274.66,14666.27,8277.94
1389588.0317,3309.87,15139.39,36365.08,37459.19,25776.15,29335.17,14875.37,8239.27
1389588.0337,4114.34,15300.56,36342.43,37423.28,25742.87,29379.75,15117.27,8200.26
1389588.0357,4451.47,15446.81,36320.83,37392.48,25719.88,29407.93,15319.49,8186.39
1389588.0377,4133.89,15486.72,36298.42,37380.89,25702.62,29385.52,15348.63,8177.33
1389588.0397,3136.92,15386.63,36286.26,37391.05,25707.25,29307.89,15150.22,8188.77
1389588.0417,2033.62,15166.09,36303.95,37410.22,25744.87,29218.01,14832.4,8227.25
1389588.0437,1666.4,15001.54,36337.48,37441.07,25786.4,29194.93,14606.76,8260.78
1389588.0457,2178.19,14994.77,36363.56,37467.87,25804.05,29250.63,14616.68,8244.8
1389588.0477,3023.58,15101.01,36372.81,37470.97,25797.18,29318.91,14790.54,8227.68
1389588.0497,3880.84,15259.79,36360.41,37446.55,25765.52,29373.89,15044.88,8217.72
1389588.0517,4419.33,15417.72,36330.04,37402.21,25724.13,29397.4,15269.71,8201.74
1389588.0537,4305.98,15478.85,36302.05,37369.21,25697.43,29378.08,15353.63,8182.24
1389588.0557,3531.5,15433.6,36290.65,37368.3,25698.33,29318.29,15235.24,8178.66
1389588.0577,2340.94,15244.3,36307.53,37399.58,25731.47,29255.58,14934.45,8215.24
1389588.0597,1690.77,15047.22,36345.53,37446.79,25777.39,29229.31,14659.98,8270.07
1389588.0617,1939.49,14989.33,36378.58,37471.35,25804.95,29258.92,14595.8,8306.65
1389588.0637,2749.4,15062.14,36385.06,37461.19,25801.61,29311.28,14734.46,8299.02
1389588.0657,3594.69,15198.38,36370.85,37430.24,25773.58,29360.15,14959.48,8270.07
1389588.0677,4311.8,15363.65,36340.29,37392.19,25728.42,29393.58,15202.19,8225.35
1389588.0697,4394.91,15462.59,36307.53,37364.44,25698.57,29384.76,15334.27,8189.35
1389588.0717,3873.16,15467.84,36294.66,37366.97,25696.09,29342.61,15296.51,8180.33
1389588.0737,2725.27,15324.93,36302.81,37382.27,25724.08,29269.36,15044.69,8205.27
1389588.0757,1821.85,15102.87,36328.99,37410.45,25766.42,29215.24,14733.46,8249.52
1389588.0777,1737.98,14980.17,36352.35,37444.07,25792.32,29208.81,14571.86,8275.03
1389588.0797,2453.38,15024.23,36371.24,37462.43,25795.94,29271.32,14664.46,8274.56
1389588.0817,3293.51,15149.45,36369.04,37450.79,25780.01,29334.98,14878.42,8249.81
1389588.0837,4128.17,15323.12,36356.41,37430.34,25762.99,29394.01,15141.92,8227.64
1389588.0857,4455.04,15468.98,36336.43,37406.4,25741.29,29416.37,15338.57,8211.28
1389588.0877,4155.54,15496.88,36312.2,37390.33,25714.93,29376.32,15352.16,8195.12
1389588.0897,3155.66,15394.16,36303.05,37399.58,25715.74,29295.64,15140.68,8200.07
1389588.0917,2057.22,15174.44,36323.41,37437.3,25756.98,29233.6,14828.73,8229.21
1389588.0937,1679.85,15022.37,36368.76,37476.54,25802.42,29226.64,14628.6,8258.68
1389588.0957,2188.49,15007.45,36394.55,37481.46,25813.3,29266.74,14639.86,8274.27
1389588.0977,3015.47,15098.0,36383.92,37458.85,25792.03,29318.24,14807.56,8257.77
1389588.0997,3863.91,15240.24,36359.51,37423.57,25755.22,29364.73,15017.37,8232.83
1389588.1017,4410.17,15403.94,36334.57,37395.96,25723.46,29397.78,15239.43,8206.51
1389588.1037,4310.51,15471.65,36310.01,37370.78,25708.11,29387.19,15334.04,8192.16
1389588.1057,3551.25,15433.22,36299.66,37375.26,25709.44,29321.24,15226.32,8191.35
1389588.1077,2362.44,15244.34,36317.16,37407.16,25742.82,29243.19,14932.97,8225.11
1389588.1097,1705.07,15051.03,36352.83,37453.8,25787.69,29204.52,14659.88,8264.64
1389588.1117,1923.7,14977.12,36382.73,37486.03,25815.06,29220.63,14566.95,8281.95
1389588.1137,2760.98,15066.72,36394.55,37494.09,25819.02,29298.26,14714.67,8286.29
1389588.1157,3603.65,15202.38,36386.68,37475.5,25796.89,29362.83,14947.27,8276.51
1389588.1177,4331.4,15373.04,36357.79,37443.02,25752.26,29398.49,15191.03,8233.93
1389588.1197,4404.21,15458.3,36315.11,37400.63,25709.2,29391.34,15318.87,8183.91
1389588.1217,3912.59,15465.69,36291.17,37390.47,25692.23,29348.04,15290.98,8172.18
1389588.1237,2736.38,15303.14,36295.56,37393.38,25715.4,29273.99,15026.19,8200.69
1389588.1257,1850.65,15094.71,36327.6,37425.9,25760.94,29233.13,14731.55,8247.9
1389588.1277,1744.46,14977.65,36362.46,37459.43,25804.33,29247.81,14579.82,8290.43
1389588.1297,2481.32,15022.23,36382.49,37465.67,25812.63,29300.98,14664.56,8298.92
1389588.1317,3292.04,15136.39,36380.44,37447.27,25795.61,29346.99,14874.22,8285.67
1389588.1337,4152.92,15312.91,36364.04,37428.48,25762.04,29385.43,15136.67,8250.43
1389588.1357,4447.65,15440.28,36334.38,37393.96,25734.14,29393.96,15312.82,8212.66
1389588.1377,4188.97,15489.2,36316.07,37381.94,25721.65,29368.74,15341.0,8192.68
1389588.1397,3164.24,15385.92,36311.3,37392.05,25723.65,29292.4,15147.35,8206.03
1389588.1417,2093.12,15175.01,36330.89,37426.62,25750.88,29228.74,14833.64,8251.1
1389588.1437,1666.98,15002.01,36363.65,37460.05,25791.12,29208.85,14600.56,8292.96
1389588.1457,2196.84,14990.71,36383.3,37478.59,25804.86,29244.33,14607.96,8298.59
1389588.1477,2997.54,15086.37,36381.63,37465.29,25799.71,29305.37,14787.1,8285.05
1389588.1497,3892.14,15250.59,36371.04,37448.6,25776.44,29369.02,15041.5,8257.53
1389588.1517,4397.92,15398.98,36327.75,37406.4,25729.8,29388.86,15238.91,8211.38
1389588.1537,4335.45,15469.84,36300.81,37377.12,25700.29,29377.46,15320.64,8178.62
1389588.1557,3554.39,15420.96,36285.45,37364.87,25693.8,29315.57,15208.25,8164.69
1389588.1577,2389.24,15227.8,36299.85,37386.18,25728.94,29240.33,14909.46,8189.25
1389588.1597,1692.63,15031.29,36330.99,37426.76,25773.43,29208.81,14636.23,8245.42
1389588.1617,1931.24,14966.49,36359.03,37464.62,25796.8,29233.27,14555.79,8278.28
1389588.1637,2725.32,15046.31,36378.58,37469.92,25801.47,29307.61,14704.18,8282.28
1389588.1657,3597.21,15181.3,36374.53,37454.66,25781.11,29365.26,14927.53,8256.96
1389588.1677,4310.75,15356.92,36348.82,37428.19,25745.11,29394.25,15178.73,8220.01
1389588.1697,4430.96,15462.73,36327.18,37405.3,25721.22,29396.25,15324.74,8197.45
1389588.1717,3922.51,15471.17,36311.87,37393.53,25708.34,29350.09,15289.5,8189.97
1389588.1737,2772.33,15316.39,36310.53,37401.68,25721.03,29273.42,15034.73,8208.7
1389588.1757,1847.65,15099.81,36334.47,37431.58,25758.65,29220.16,14730.26,8245.76
1389588.1777,1755.05,14978.41,36376.67,37474.11,25802.33,29229.64,14581.87,8285.95
1389588.1797,2467.2,15026.48,36399.27,37479.26,25817.54,29283.67,14678.91,8299.78
1389588.1817,3292.23,15139.01,36395.6,37455.61,25802.09,29340.13,14886.38,8277.94
1389588.1837,4129.22,15306.19,36369.61,37421.85,25759.56,29387.76,15132.81,8231.93
1389588.1857,4441.36,15433.69,36336.33,37388.0,25718.41,29404.41,15309.62,8197.79
1389588.1877,4188.11,15486.05,36318.97,37380.56,25707.25,29384.33,15356.11,8183.29
1389588.1897,3188.8,15385.49,36311.82,37386.95,25719.79,29304.08,15169.43,8191.4
1389588.1917,2100.13,15170.43,36330.99,37418.04,25752.17,29225.59,14842.18,8216.33
1389588.1937,1671.55,14997.63,36368.8,37469.49,25794.8,29203.85,14598.09,8255.86
1389588.1957,2191.93,15000.06,36395.98,37510.45,25819.59,29257.63,14599.99,8285.48
1389588.1977,2996.64,15090.13,36390.74,37497.38,25811.63,29323.63,14778.85,8286.52
1389588.1997,3882.74,15249.4,36371.62,37462.62,25778.87,29381.9,15033.68,8262.54
1389588.2017,4399.68,15397.74,36340.77,37409.98,25736.24,29402.12,15255.69,8219.67
1389588.2037,4343.94,15474.04,36311.58,37370.64,25703.81,29391.01,15353.06,8195.69
1389588.2057,3569.13,15421.3,36292.08,37350.75,25696.33,29329.49,15233.23,8193.68
1389588.2077,2409.94,15242.63,36308.77,37387.66,25736.05,29261.07,14937.31,8220.24
1389588.2097,1691.48,15039.06,36343.96,37438.35,25788.07,29217.06,14649.68,8262.78
1389588.2117,1935.15,14978.36,36371.52,37476.73,25815.82,29235.41,14578.77,8294.15
1389588.2137,2717.07,15048.79,36386.49,37482.7,25817.78,29300.03,14724.97,8299.26
1389588.2157,3581.67,15185.26,36374.72,37456.37,25790.46,29346.14,14951.33,8268.31
1389588.2177,4279.76,15341.9,36340.67,37410.55,25744.58,29376.46,15190.79,8218.48
1389588.2197,4416.04,15442.66,36304.81,37378.94,25704.82,29373.12,15318.97,8182.43
1389588.2217,3907.63,15453.82,36299.23,37387.18,25698.71,29339.6,15280.25,8177.57
1389588.2237,2792.41,15318.92,36310.44,37408.79,25725.03,29266.74,15035.49,8206.99
1389588.2257,1848.6,15102.01,36339.57,37435.25,25767.62,29216.58,14737.75,8252.81
1389588.2277,1755.19,14987.9,36373.81,37464.53,25797.47,29219.92,14586.88,8284.05
1389588.2297,2437.78,15024.09,36396.46,37476.83,25802.04,29281.57,14669.28,8295.44
1389588.2317,3295.47,15142.35,36392.6,37460.57,25781.35,29344.47,14872.17,8279.13
1389588.2337,4109.29,15309.81,36371.19,37433.82,25753.69,29396.68,15120.08,8248.0
1389588.2357,4468.54,15451.1,36341.81,37409.5,25721.41,29410.37,15313.58,8211.42
1389588.2377,4181.43,15491.3,36313.49,37389.43,25704.05,29376.32,15342.48,8193.88
1389588.2397,3214.88,15399.03,36306.53,37400.92,25711.25,29305.89,15153.31,8201.5
1389588.2417,2089.93,15178.25,36325.03,37428.57,25752.83,29231.69,14828.4,8228.83
1389588.2437,1681.76,15008.83,36363.56,37465.72,25797.37,29211.81,14599.52,8265.45
1389588.2457,2165.6,14999.3,36394.65,37492.33,25816.73,29257.11,14612.39,8290.67
1389588.2477,3011.75,15098.0,36400.61,37487.42,25808.43,29321.29,14792.54,8289.96
1389588.2497,3863.48,15244.91,36379.87,37452.99,25773.19,29371.79,15034.06,8256.39
1389588.2517,4414.23,15395.36,36336.04,37404.68,25724.51,29388.24,15251.07,8200.98
1389588.2537,4332.45,15465.12,36303.76,37371.07,25697.9,29379.04,15338.33,8159.54
1389588.2557,3592.87,15426.88,36288.41,37373.79,25695.99,29324.25,15229.13,8154.06
1389588.2577,2400.26,15243.01,36303.1,37401.63,25727.8,29252.58,14934.11,8184.96
1389588.2597,1712.89,15048.55,36342.63,37439.11,25779.63,29217.91,14661.41,8244.47
1389588.2617,1913.93,14990.14,36381.44,37478.5,25816.4,29240.04,14587.74,8286.86
1389588.2637,2716.49,15061.57,36390.36,37482.89,25813.96,29302.7,14721.2,8282.57
1389588.2657,3567.74,15194.7,36379.06,37466.1,25789.31,29363.92,14952.66,8256.2
1389588.2677,4315.04,15373.28,36362.94,37438.92,25754.84,29419.66,15208.91,8241.32
1389588.2697,4429.39,15478.57,36333.28,37396.72,25719.79,29411.8,15344.19,8217.67
1389588.2717,3943.49,15482.09,36317.54,37380.65,25705.82,29369.98,15311.58,8207.66
1389588.2737,2793.98,15328.31,36315.97,37388.23,25721.6,29281.05,15045.74,8219.62
1389588.2757,1853.51,15106.44,36336.33,37421.8,25761.51,29213.53,14729.36,8250.43
1389588.2777,1738.55,14985.8,36374.1,37466.53,25800.95,29207.19,14581.16,8272.08
1389588.2797,2428.63,15018.42,36393.84,37484.98,25811.72,29264.79,14658.36,8281.85
1389588.2817,3258.99,15127.33,36379.96,37457.09,25785.16,29322.63,14853.38,8270.6
1389588.2837,4083.73,15278.48,36347.44,37411.12,25743.92,29362.01,15089.47,8233.74
1389588.2857,4423.05,15416.72,36311.3,37363.68,25708.25,29373.79,15277.58,8198.74
1389588.2877,4160.93,15466.64,36292.94,37350.8,25696.28,29355.67,15321.26,8185.1
1389588.2897,3202.25,15382.96,36293.37,37373.74,25712.54,29289.2,15141.97,8189.54
1389588.2917,2095.37,15176.25,36322.84,37423.76,25762.37,29233.03,14841.08,8222.1
1389588.2937,1669.41,15010.6,36358.65,37467.39,25803.04,29209.9,14622.93,8262.64
1389588.2957,2137.85,14987.18,36386.35,37488.04,25816.87,29249.05,14619.11,8284.76
1389588.2977,2977.18,15090.18,36391.31,37473.92,25802.38,29309.56,14784.72,8279.8
1389588.2997,3831.29,15237.05,36374.86,37445.74,25767.71,29357.96,15020.56,8246.09
1389588.3017,4404.12,15399.65,36341.34,37406.54,25724.84,29388.81,15250.16,8198.79
1389588.3037,4329.35,15471.17,36316.83,37386.56,25703.15,29381.47,15337.28,8170.65
1389588.3057,3621.29,15450.48,36314.83,37399.01,25708.96,29332.21,15238.95,8177.66
1389588.3077,2420.04,15257.27,36326.6,37423.52,25741.06,29258.3,14940.93,8199.55
1389588.3097,1723.24,15060.71,36357.31,37467.91,25781.06,29222.44,14669.9,8234.79
1389588.3117,1901.34,14985.52,36394.46,37497.43,25816.59,29241.28,14585.78,8274.84
1389588.3137,2719.35,15060.57,36404.61,37486.65,25813.15,29303.74,14729.02,8289.77
1389588.3157,3546.52,15184.55,36390.36,37453.56,25787.26,29359.63,14942.7,8280.9
1389588.3177,4305.74,15361.41,36361.84,37412.36,25746.16,29400.54,15191.51,8246.85
1389588.3197,4415.42,15464.21,36330.37,37378.98,25718.74,29403.59,15336.66,8221.1
1389588.3217,3963.23,15484.0,36314.87,37373.83,25711.3,29365.11,15317.68,8213.52
1389588.3237,2803.23,15334.75,36316.73,37394.91,25730.76,29285.82,15071.35,8228.68
1389588.3257,1882.36,15121.6,36342.05,37430.34,25769.95,29227.45,14772.23,8259.73
1389588.3277,1722.62,14987.85,36370.42,37465.72,25806.19,29222.83,14600.76,8285.19
1389588.3297,2425.29,15017.46,36381.39,37471.87,25809.2,29263.31,14654.83,8279.85
1389588.3317,3240.06,15129.19,36379.87,37452.61,25797.61,29321.67,14845.09,8257.91
1389588.3337,4104.57,15301.28,36358.46,37424.28,25763.9,29374.75,15106.16,8219.86
1389588.3357,4433.78,15438.37,36333.71,37398.49,25736.19,29400.5,15303.23,8198.41
1389588.3377,4212.43,15492.39,36315.73,37390.86,25721.55,29383.57,15343.67,8197.69
1389588.3397,3219.89,15401.41,36310.34,37390.67,25722.75,29308.56,15155.51,8198.31
1389588.3417,2129.65,15191.56,36330.04,37417.13,25753.31,29238.66,14841.18,8232.02
1389588.3437,1663.59,15014.13,36361.94,37454.13,25791.84,29214.48,14601.76,8278.7
1389588.3457,2155.97,14996.96,36384.87,37477.69,25806.86,29251.39,14597.37,8299.78
1389588.3477,2963.3,15092.04,36390.88,37480.93,25800.04,29315.14,14776.9,8290.01
1389588.3497,3853.99,15246.87,36380.34,37470.2,25774.43,29371.69,15022.76,8263.88
1389588.3517,4401.21,15401.7,36348.49,37431.39,25732.0,29396.35,15246.15,8220.72
1389588.3537,4360.63,15476.42,36318.93,37395.91,25702.91,29385.86,15342.29,8193.68
1389588.3557,3620.34,15445.52,36303.14,37378.08,25702.38,29330.5,15245.11,8189.87
1389588.3577,2454.04,15262.08,36316.45,37402.21,25735.67,29260.83,14957.0,8218.62
1389588.3597,1718.95,15062.14,36344.77,37443.26,25776.68,29224.69,14684.15,8253.86
1389588.3617,1911.45,14987.8,36378.29,37477.26,25806.38,29240.9,14594.27,8278.18
1389588.3637,2691.08,15052.51,36388.59,37476.21,25802.38,29301.31,14717.29,8277.23
1389588.3657,3550.48,15180.54,36383.49,37461.05,25778.82,29360.87,14935.92,8255.05
1389588.3677,4293.39,15350.34,36358.27,37427.38,25741.87,29400.4,15183.4,8210.14
1389588.3697,4444.79,15463.83,36334.47,37400.06,25718.98,29407.08,15335.9,8190.92
1389588.3717,3979.73,15487.15,36319.45,37397.68,25710.2,29369.79,15312.72,8197.12
1389588.3737,2841.52,15336.47,36308.53,37405.45,25718.31,29286.05,15055.47,8214.76
1389588.3757,1879.84,15111.5,36322.22,37427.1,25755.03,29217.39,14743.0,8242.56
1389588.3777,1732.06,14984.04,36363.8,37467.06,25800.04,29227.21,14581.25,8280.9
1389588.3797,2431.2,15036.87,36398.32,37483.79,25817.68,29297.64,14672.95,8297.83
1389588.3817,3253.6,15146.02,36387.83,37464.81,25798.61,29354.0,14878.94,8276.65
1389588.3837,4110.15,15318.78,36362.46,37438.02,25769.14,29406.17,15137.96,8242.51
1389588.3857,4451.08,15449.81,36330.42,37408.88,25735.91,29409.08,15306.62,8201.79
1389588.3877,4212.52,15494.54,36304.19,37396.34,25710.87,29362.3,15341.14,8179.81
1389588.3897,3237.63,15395.88,36297.47,37397.58,25719.31,29291.16,15161.61,8180.95
1389588.3917,2133.08,15185.79,36313.3,37421.04,25755.41,29226.26,14837.08,8220.58
1389588.3937,1658.96,15007.69,36350.92,37461.43,25797.56,29209.95,14605.67,8280.42
1389588.3957,2146.15,14994.62,36378.63,37480.5,25812.44,29247.95,14606.76,8303.07
1389588.3977,2945.71,15075.59,36379.2,37458.38,25795.22,29303.7,14772.13,8281.9
1389588.3997,3837.78,15236.86,36369.95,37433.06,25769.33,29365.59,15022.18,8256.63
1389588.4017,4394.25,15397.84,36347.73,37401.49,25732.0,29400.07,15238.76,8222.01
1389588.4037,4364.3,15479.61,36314.44,37375.65,25696.57,29388.0,15342.67,8183.67
1389588.4057,3621.91,15438.84,36298.23,37377.6,25694.04,29325.68,15228.75,8177.66
1389588.4077,2457.52,15259.6,36308.01,37398.3,25728.85,29255.68,14935.64,8210.61
1389588.4097,1711.89,15057.28,36347.11,37441.59,25783.83,29233.75,14661.31,8249.9
1389588.4117,1921.37,14999.77,36390.74,37491.71,25818.3,29258.54,14586.78,8281.33
1389588.4137,2682.73,15054.61,36393.89,37480.45,25801.14,29302.55,14712.57,8279.85
1389588.4157,3544.95,15186.31,36379.96,37450.56,25776.77,29344.71,14932.11,8258.06
1389588.4177,4275.56,15355.4,36360.7,37421.42,25752.88,29390.77,15186.6,8228.88
1389588.4197,4451.47,15473.08,36333.47,37385.85,25731.19,29403.79,15336.56,8208.18
1389588.4217,3965.9,15477.37,36304.76,37367.01,25711.78,29357.39,15307.14,8196.07
1389588.4237,2853.35,15337.18,36302.14,37379.79,25724.13,29273.85,15059.14,8214.28
1389588.4257,1878.98,15118.41,36329.23,37419.04,25767.33,29212.91,14742.76,8251.57
1389588.4277,1736.93,14987.52,36359.6,37459.66,25799.56,29210.67,14569.43,8278.37
1389588.4297,2385.09,15013.41,36380.01,37480.79,25806.81,29267.93,14638.47,8279.37
1389588.4317,3234.58,15129.9,36377.2,37466.72,25786.31,29327.11,14840.37,8259.06
1389588.4337,4067.37,15296.08,36363.65,37440.45,25752.12,29381.18,15097.19,8226.97
1389588.4357,4451.61,15434.22,36333.14,37396.39,25714.26,29388.96,15287.02,8190.01
1389588.4377,4190.64,15476.61,36301.81,37362.39,25693.71,29353.43,15323.55,8159.83
1389588.4397,3257.08,15401.51,36298.66,37387.18,25706.2,29291.82,15161.9,8166.7
1389588.4417,2126.93,15190.89,36318.64,37430.0,25747.49,29225.02,14845.85,8212.85
1389588.4437,1677.99,15020.9,36361.75,37478.07,25793.6,29206.47,14596.27,8275.65
1389588.4457,2120.78,15001.78,36396.98,37509.73,25814.2,29254.58,14599.04,8313.56
1389588.4477,2966.93,15100.62,36407.14,37498.81,25811.77,29322.29,14787.96,8307.31
1389588.4497,3823.42,15248.82,36390.4,37458.62,25781.97,29372.46,15023.42,8272.08
1389588.4517,4406.12,15400.13,36348.87,37414.08,25730.76,29394.58,15236.81,8217.72
1389588.4537,4351.9,15472.27,36313.06,37381.7,25702.19,29385.19,15332.75,8181.86
1389588.4557,3655.34,15444.81,36299.28,37381.32,25705.63,29330.78,15237.57,8176.66
1389588.4577,2461.1,15261.22,36308.72,37401.35,25736.91,29253.87,14937.21,8209.42
1389588.4597,1734.21,15060.67,36343.29,37443.45,25779.3,29218.1,14655.11,8258.2
1389588.4617,1896.76,14990.14,36384.83,37482.89,25816.4,29246.1,14571.95,8291.67
1389588.4637,2687.98,15056.95,36402.13,37488.61,25813.39,29313.95,14705.33,8294.77
1389588.4657,3530.07,15189.94,36388.54,37464.86,25780.3,29365.83,14933.25,8273.46
1389588.4677,4298.26,15368.75,36369.95,37439.64,25750.4,29410.27,15187.22,8247.38
1389588.4697,4463.34,15488.1,36340.1,37409.12,25725.65,29415.09,15343.72,8220.34
1389588.4717,4005.43,15499.78,36324.89,37398.87,25717.12,29377.13,15328.98,8202.22
1389588.4737,2886.49,15369.61,36334.09,37412.55,25744.06,29314.71,15104.1,8226.35
1389588.4757,1921.37,15147.83,36362.8,37452.03,25788.55,29265.79,14787.15,8272.12
1389588.4777,1759.72,15017.46,36392.79,37489.75,25819.69,29263.83,14612.25,8308.32
1389588.4797,2422.71,15042.74,36413.48,37508.78,25829.46,29320.96,14690.5,8317.38
1389588.4817,3264.76,15160.71,36410.38,37498.19,25818.4,29367.4,14894.15,8300.21
1389588.4837,4105.95,15323.35,36393.17,37468.63,25789.65,29407.22,15126.28,8263.88
1389588.4857,4485.89,15469.17,36365.8,37439.59,25750.54,29430.2,15301.94,8228.92
1389588.4877,4247.33,15516.81,36345.01,37423.76,25729.33,29414.99,15356.59,8218.43
1389588.4897,3307.63,15433.69,36332.8,37424.24,25729.13,29342.08,15187.74,8215.57
1389588.4917,2152.25,15205.43,36338.76,37444.07,25754.55,29256.78,14853.91,8234.55
1389588.4937,1677.56,15030.43,36371.09,37475.73,25791.08,29223.83,14615.06,8265.88
1389588.4957,2114.58,15002.2,36394.79,37491.23,25812.06,29250.77,14596.27,8290.24
1389588.4977,2946.66,15092.99,36388.97,37485.79,25796.37,29297.55,14762.69,8276.85
1389588.4997,3795.34,15235.9,36367.9,37456.99,25765.28,29343.75,15001.92,8239.17
1389588.5017,4395.96,15395.74,36331.47,37402.63,25719.55,29365.07,15232.14,8194.97
1389588.5037,4348.14,15469.7,36301.86,37366.25,25694.8,29357.87,15330.55,8180.33
1389588.5057,3658.25,15447.28,36292.27,37373.83,25696.66,29306.46,15238.76,8182.91
1389588.5077,2451.71,15258.03,36308.39,37404.11,25729.85,29232.46,14940.79,8213.33
1389588.5097,1730.49,15065.86,36344.91,37454.66,25774.53,29201.94,14669.42,8266.21
1389588.5117,1858.38,14980.75,36376.67,37485.56,25798.61,29222.16,14568.33,8297.64
1389588.5137,2667.95,15051.13,36388.54,37487.42,25797.99,29284.29,14692.26,8297.02
1389588.5157,3500.41,15179.78,36385.68,37471.97,25778.63,29349.62,14905.93,8267.93
1389588.5177,4283.48,15362.36,36367.47,37442.74,25742.3,29394.58,15169.34,8220.72
1389588.5197,4423.76,15469.7,36336.9,37401.01,25717.88,29400.54,15323.55,8197.07
1389588.5217,3992.99,15485.43,36306.91,37376.79,25702.38,29342.51,15305.95,8190.39
1389588.5237,2837.66,15330.08,36296.04,37376.22,25707.77,29254.58,15049.32,8205.08
1389588.5257,1889.13,15114.6,36320.64,37415.94,25745.59,29199.32,14732.31,8251.72
1389588.5277,1689.72,14976.74,36355.36,37454.51,25785.26,29198.6,14552.02,8292.2
1389588.5297,2381.71,15007.69,36377.15,37472.35,25800.28,29251.82,14620.83,8301.16
1389588.5317,3194.81,15119.27,36376.15,37461.67,25790.41,29309.47,14822.87,8283.71
1389588.5337,4074.81,15294.08,36370.19,37443.79,25765.57,29366.59,15086.32,8245.9
1389588.5357,4434.16,15436.94,36344.63,37415.08,25733.38,29391.05,15287.35,8204.56
1389588.5377,4239.46,15496.3,36320.17,37408.79,25715.88,29375.41,15339.9,8184.15
1389588.5397,3282.93,15418.58,36315.49,37414.08,25724.08,29309.09,15170.96,8199.55
1389588.5417,2168.89,15203.33,36324.03,37434.06,25751.88,29233.98,14851.52,8237.03
1389588.5437,1654.29,15015.46,36346.15,37470.44,25779.68,29202.42,14602.85,8274.41
1389588.5457,2106.48,14988.09,36367.85,37480.41,25794.8,29233.27,14586.59,8286.81
1389588.5477,2921.49,15085.89,36380.96,37464.81,25797.85,29303.6,14765.22,8279.47
1389588.5497,3805.02,15240.34,36369.61,37444.17,25774.01,29369.55,15011.93,8247.71
1389588.5517,4380.32,15397.22,36335.66,37405.35,25729.47,29403.98,15241.43,8211.8
1389588.5537,4373.79,15481.33,36310.87,37383.42,25703.72,29403.5,15344.43,8195.69
1389588.5557,3677.27,15465.74,36304.29,37386.56,25705.53,29352.14,15257.74,8200.84
1389588.5577,2500.49,15288.07,36319.78,37420.94,25738.39,29260.69,14967.68,8221.2
1389588.5597,1729.35,15083.7,36353.26,37458.85,25783.16,29210.67,14694.5,8262.25
1389588.5617,1869.11,14995.05,36380.82,37488.7,25809.48,29228.88,14597.89,8290.2
1389588.5637,2634.81,15048.22,36379.34,37478.83,25794.22,29279.19,14703.9,8276.75
1389588.5657,3479.2,15167.0,36366.66,37447.5,25765.57,29334.45,14894.87,8254.29
1389588.5677,4244.04,15339.71,36343.15,37405.16,25733.19,29383.85,15157.42,8225.68
1389588.5697,4420.81,15451.1,36310.01,37367.87,25702.05,29386.0,15313.48,8200.41
1389588.5717,3992.75,15475.08,36292.8,37360.62,25689.03,29347.18,15300.8,8181.81
1389588.5737,2869.27,15337.71,36299.19,37380.75,25713.35,29273.32,15062.57,8202.65
1389588.5757,1892.33,15124.51,36325.7,37422.33,25758.7,29212.29,14743.04,8245.85
1389588.5777,1689.53,14982.23,36357.22,37462.76,25796.13,29208.0,14558.51,8273.27
1389588.5797,2360.73,15011.98,36373.57,37469.73,25803.57,29263.69,14624.5,8278.51
1389588.5817,3194.48,15131.76,36378.96,37461.95,25801.04,29337.36,14833.64,8273.51
1389588.5837,4070.09,15312.96,36371.04,37448.7,25778.73,29396.68,15110.83,8239.84
1389588.5857,4436.06,15436.79,36333.76,37410.41,25732.57,29400.54,15305.0,8179.57
1389588.5877,4232.69,15482.57,36303.1,37390.57,25699.76,29375.32,15343.62,8160.59
1389588.5897,3284.36,15396.84,36295.61,37390.67,25701.67,29309.32,15159.94,8182.1
1389588.5917,2163.93,15194.47,36313.97,37406.35,25742.39,29231.89,14849.24,8231.69
1389588.5937,1652.86,15016.13,36357.79,37449.75,25794.46,29207.81,14609.86,8288.34
1389588.5957,2106.67,14997.67,36387.64,37485.56,25810.77,29248.91,14596.75,8307.27
1389588.5977,2905.66,15073.49,36386.68,37474.64,25791.46,29311.23,14759.45,8281.42
1389588.5997,3789.81,15224.12,36371.09,37442.64,25758.51,29364.3,15001.87,8240.61
1389588.6017,4364.63,15377.81,36333.61,37403.97,25720.41,29391.58,15222.22,8193.92
1389588.6037,4366.88,15466.31,36301.52,37374.93,25694.52,29388.43,15328.17,8168.13
1389588.6057,3668.21,15439.37,36287.31,37368.4,25693.85,29329.68,15240.62,8177.85
1389588.6077,2506.88,15273.38,36303.62,37387.76,25731.61,29257.21,14965.44,8220.39
1389588.6097,1735.83,15085.13,36355.55,37441.88,25795.42,29233.41,14696.98,8288.91
1389588.6117,1887.99,15012.55,36389.26,37481.84,25823.74,29251.72,14593.89,8323.81
1389588.6137,2638.05,15057.95,36388.16,37475.64,25807.77,29296.88,14701.42,8306.22
1389588.6157,3504.23,15185.12,36375.24,37450.84,25778.87,29348.62,14923.24,8270.46
1389588.6177,4249.05,15349.82,36352.97,37414.94,25740.82,29391.96,15181.21,8230.11
1389588.6197,4450.61,15466.26,36325.7,37385.13,25709.73,29400.78,15342.14,8195.69
1389588.6217,4009.39,15483.05,36308.34,37374.21,25702.34,29353.67,15325.5,8184.1
1389588.6237,2913.9,15354.87,36309.15,37380.89,25722.79,29277.66,15092.23,8202.7
1389588.6257,1909.97,15136.91,36334.9,37425.24,25771.19,29226.07,14776.95,8239.56
1389588.6277,1723.72,15002.78,36369.09,37471.82,25805.71,29227.16,14597.85,8274.94
1389588.6297,2355.58,15017.99,36384.01,37481.65,25808.48,29277.33,14637.52,8286.33
1389588.6317,3204.49,15126.85,36379.77,37466.48,25786.69,29337.89,14834.02,8264.16
1389588.6337,4038.0,15285.54,36361.51,37437.11,25752.83,29390.2,15085.41,8227.25
1389588.6357,4454.47,15429.98,36336.38,37406.12,25717.55,29411.56,15292.84,8192.11
1389588.6377,4233.79,15479.42,36313.3,37382.56,25696.71,29385.09,15345.29,8168.75
1389588.6397,3322.32,15403.94,36302.48,37384.23,25697.28,29313.71,15180.45,8178.66
1389588.6417,2181.24,15206.01,36329.89,37428.67,25743.06,29257.21,14872.12,8236.79
1389588.6437,1683.76,15031.72,36369.23,37487.85,25790.65,29237.18,14632.66,8278.51
1389588.6457,2086.16,15004.54,36397.18,37515.12,25811.72,29274.9,14610.24,8295.35
1389588.6477,2919.63,15089.9,36398.13,37489.37,25801.61,29335.22,14776.66,8291.67
1389588.6497,3775.17,15228.56,36380.2,37445.36,25771.05,29381.95,15005.35,8261.73
1389588.6517,4397.63,15395.02,36358.5,37406.59,25736.05,29415.18,15244.96,8228.49
1389588.6537,4369.93,15481.14,36327.27,37378.6,25714.4,29399.16,15354.78,8209.61
1389588.6557,3707.93,15466.02,36314.44,37392.38,25712.83,29341.8,15270.81,8208.94
1389588.6577,2515.03,15288.4,36322.55,37415.6,25737.81,29261.02,14978.46,8225.82
1389588.6597,1742.89,15080.69,36357.22,37452.7,25780.2,29217.68,14687.3,8250.19
1389588.6617,1857.47,14997.1,36389.02,37483.74,25807.96,29235.75,14574.2,8271.6
1389588.6637,2635.96,15054.66,36396.7,37487.23,25807.05,29293.16,14690.73,8276.27
1389588.6657,3481.77,15188.36,36386.49,37465.1,25785.4,29349.38,14916.42,8265.02
1389588.6677,4259.92,15362.22,36368.09,37436.68,25755.55,29398.16,15179.35,8242.56
1389588.6697,4442.98,15476.18,36335.57,37395.77,25724.89,29406.84,15349.2,8218.38
1389588.6717,4021.03,15487.01,36309.87,37382.51,25707.06,29365.07,15336.09,8201.08
1389588.6737,2923.3,15360.26,36313.25,37399.58,25727.56,29290.06,15091.33,8210.14
1389588.6757,1940.39,15155.36,36353.26,37442.97,25782.78,29244.71,14776.04,8254.15
1389588.6777,1733.68,15024.52,36389.98,37488.32,25818.68,29237.56,14602.0,8295.44
1389588.6797,2362.63,15033.53,36403.09,37501.1,25816.35,29279.04,14656.69,8303.93
1389588.6817,3197.05,15144.49,36395.51,37482.17,25793.79,29336.79,14857.25,8284.57
1389588.6837,4041.96,15304.23,36373.19,37448.55,25764.66,29382.28,15097.38,8251.05
1389588.6857,4448.37,15450.62,36339.91,37410.79,25728.61,29399.59,15285.73,8209.75
1389588.6877,4231.69,15500.45,36314.63,37388.62,25706.53,29384.57,15344.14,8190.54
1389588.6897,3336.1,15431.79,36307.05,37398.49,25712.4,29318.57,15191.08,8189.63
1389588.6917,2179.48,15216.02,36322.17,37428.43,25749.59,29242.09,14862.21,8221.77
1389588.6937,1680.85,15045.22,36355.21,37470.01,25795.37,29217.06,14617.44,8270.6
1389588.6957,2077.96,15012.65,36385.87,37498.91,25818.02,29258.45,14602.57,8299.21
1389588.6977,2916.05,15103.58,36387.26,37491.85,25804.81,29320.91,14771.42,8285.9
1389588.6997,3760.53,15240.81,36371.0,37463.53,25775.05,29372.84,15003.92,8254.0
1389588.7017,4382.61,15404.7,36339.14,37412.79,25731.14,29398.64,15240.91,8217.14
1389588.7037,4359.91,15487.72,36317.11,37378.27,25706.44,29402.64,15358.4,8199.07
1389588.7057,3720.47,15476.23,36308.96,37379.03,25707.77,29356.34,15286.64,8199.55
1389588.7077,2530.0,15300.56,36323.79,37406.97,25747.3,29279.19,14996.34,8231.55
1389588.7097,1772.83,15098.14,36354.98,37450.37,25789.17,29236.99,14694.64,8264.54
1389588.7117,1846.74,14999.77,36377.63,37481.74,25811.58,29247.43,14569.9,8280.9
1389588.7137,2634.72,15066.91,36387.21,37487.46,25804.62,29300.07,14696.31,8280.9
1389588.7157,3458.21,15190.7,36381.2,37472.92,25783.35,29359.87,14918.38,8272.51
