TimeStamp,P3,P4,F3,F4,FP1,I1,I2,FP2
1389763.2194,2714.01,13734.06,35197.55,35276.08,25252.63,28841.07,13356.78,8514.21
1389763.2214,5672.36,14490.75,35154.3,35260.25,25126.22,28989.37,14091.92,8392.76
1389763.2234,7810.5,15315.68,35062.36,35188.54,24974.06,29080.49,14840.27,8245.37
1389763.2254,7815.41,15728.14,34951.17,35077.77,24858.86,29039.24,15183.55,8131.17
1389763.2274,5596.5,15571.41,34880.07,34985.31,24842.46,28886.27,14964.49,8115.63
1389763.2294,1642.89,14714.29,34885.55,34948.5,24957.23,28673.37,14112.95,8223.01
1389763.2314,-1034.16,13735.01,34984.74,35018.73,25135.19,28565.7,13211.78,8388.0
1389763.2334,-863.89,13265.52,35128.36,35173.61,25275.85,28632.88,12826.78,8527.57
1389763.2354,1766.16,13556.72,35216.38,35295.01,25291.26,28807.07,13168.81,8544.83
1389763.2374,4675.48,14239.6,35213.19,35319.62,25207.43,28960.61,13839.01,8462.33
1389763.2394,7363.46,15105.92,35140.76,35268.84,25058.22,29072.72,14640.24,8321.48
1389763.2414,8051.3,15679.89,35024.89,35154.06,24923.09,29065.04,15151.17,8192.92
1389763.2434,6674.82,15736.72,34926.47,35039.48,24862.63,28952.55,15138.53,8136.23
1389763.2454,2981.85,15072.87,34890.51,34961.04,24931.24,28732.83,14445.69,8201.84
1389763.2474,-379.18,14046.77,34953.65,34997.99,25091.79,28564.98,13471.13,8353.9
1389763.2494,-1304.39,13336.85,35081.06,35120.16,25246.1,28561.4,12855.1,8501.58
1389763.2514,764.61,13379.15,35180.91,35253.91,25289.49,28711.51,12966.44,8544.35
1389763.2534,3638.98,13951.45,35192.54,35302.6,25226.45,28885.13,13562.49,8485.22
1389763.2554,6609.58,14799.31,35145.91,35287.53,25098.47,29039.58,14372.83,8362.72
1389763.2574,8017.68,15516.95,35034.85,35183.48,24943.26,29080.68,15021.14,8216.29
1389763.2594,7395.89,15773.16,34933.14,35064.7,24852.71,29003.1,15204.72,8127.59
1389763.2614,4362.25,15359.45,34873.68,34966.57,24871.64,28809.69,14738.94,8137.94
1389763.2634,536.97,14376.21,34899.0,34956.27,25008.4,28597.31,13778.45,8258.96
1389763.2654,-1351.83,13502.84,35020.07,35063.84,25184.87,28542.43,12997.77,8428.96
1389763.2674,-139.05,13293.55,35152.87,35214.71,25281.96,28661.68,12874.75,8533.76
1389763.2694,2678.44,13751.56,35219.15,35304.26,25262.36,28860.38,13375.28,8526.95
1389763.2714,5681.32,14513.78,35186.63,35305.31,25144.63,29012.97,14111.28,8416.84
1389763.2734,7798.1,15325.6,35078.53,35220.82,24976.4,29082.21,14852.29,8254.91
1389763.2754,7839.73,15745.26,34958.13,35096.36,24855.09,29046.92,15204.34,8135.32
1389763.2774,5621.05,15581.42,34876.06,34988.6,24836.45,28885.18,14967.68,8114.24
1389763.2794,1729.2,14745.19,34887.27,34963.56,24958.47,28665.16,14123.39,8228.97
1389763.2814,-1010.37,13768.25,34991.51,35044.77,25143.82,28558.5,13229.23,8408.88
1389763.2834,-859.21,13288.07,35124.45,35187.11,25277.24,28624.68,12840.84,8534.0
1389763.2854,1717.71,13563.49,35211.76,35294.3,25290.73,28817.7,13172.53,8545.21
1389763.2874,4665.52,14239.84,35206.37,35315.95,25201.61,28989.75,13852.31,8466.2
1389763.2894,7330.61,15088.7,35122.68,35260.4,25044.11,29101.52,14641.67,8321.38
1389763.2914,8057.55,15668.78,35010.82,35151.44,24912.17,29068.62,15143.68,8197.93
1389763.2934,6682.16,15731.96,34913.97,35039.86,24851.47,28930.05,15134.77,8137.08
1389763.2954,3057.19,15084.65,34879.12,34961.47,24916.46,28710.65,14461.95,8197.17
1389763.2974,-343.42,14064.5,34951.07,34990.79,25082.64,28550.82,13498.5,8354.24
1389763.2994,-1296.71,13346.1,35081.01,35112.1,25241.14,28551.96,12864.5,8503.96
1389763.3014,740.24,13396.26,35200.46,35261.59,25304.32,28715.9,12985.61,8562.85
1389763.3034,3640.32,13966.04,35217.67,35316.57,25246.19,28894.09,13581.66,8504.2
1389763.3054,6597.38,14804.7,35163.55,35293.54,25107.82,29044.06,14382.27,8372.45
1389763.3074,8041.43,15526.92,35058.12,35198.6,24957.33,29090.03,15021.42,8229.69
1389763.3094,7434.89,15792.42,34951.6,35080.29,24867.73,29014.97,15210.44,8141.8
1389763.3114,4435.4,15377.33,34883.69,34970.67,24880.32,28814.99,14746.05,8151.72
1389763.3134,600.72,14402.87,34918.36,34961.18,25023.03,28613.0,13801.62,8284.0
1389763.3154,-1331.57,13518.62,35038.86,35072.33,25203.33,28552.44,13011.6,8453.99
1389763.3174,-170.99,13291.65,35160.21,35216.1,25287.2,28654.77,12863.07,8536.63
1389763.3194,2635.43,13728.05,35209.71,35295.16,25252.73,28834.82,13343.38,8505.82
1389763.3214,5653.57,14501.53,35181.57,35303.07,25138.05,29001.05,14098.93,8388.85
1389763.3234,7802.82,15320.11,35087.16,35227.21,24984.65,29092.84,14854.34,8238.7
1389763.3254,7885.79,15758.9,34976.96,35106.23,24874.83,29064.09,15214.97,8135.94
1389763.3274,5682.04,15593.44,34887.32,34984.93,24844.94,28899.24,14984.8,8115.53
1389763.3294,1778.79,14753.53,34884.41,34937.58,24948.74,28681.66,14141.42,8218.81
1389763.3314,-993.35,13762.71,34982.02,35014.16,25128.37,28574.9,13228.8,8385.52
1389763.3334,-883.87,13272.1,35106.14,35153.11,25254.4,28616.0,12824.01,8501.53
1389763.3354,1653.91,13522.2,35177.62,35253.96,25256.06,28777.89,13133.58,8503.44
1389763.3374,4615.26,14203.93,35175.66,35278.52,25168.56,28944.88,13816.12,8412.6
1389763.3394,7289.94,15055.13,35103.75,35228.64,25021.13,29058.32,14615.01,8272.27
1389763.3414,8068.61,15656.57,34997.52,35124.26,24893.24,29065.14,15137.15,8150.72
1389763.3434,6713.92,15735.2,34920.89,35028.27,24852.52,28961.95,15137.2,8115.01
1389763.3454,3139.4,15108.54,34895.85,34966.19,24931.2,28758.48,14484.31,8191.21
1389763.3474,-309.9,14080.86,34965.81,35003.76,25097.56,28591.78,13519.34,8354.71
1389763.3494,-1277.54,13361.07,35095.17,35129.46,25254.78,28583.34,12895.01,8509.06
1389763.3514,695.99,13379.48,35198.93,35253.48,25301.36,28731.11,12985.42,8559.56
1389763.3534,3612.8,13950.73,35216.1,35303.5,25238.33,28905.35,13584.14,8502.63
1389763.3554,6535.53,14775.56,35158.21,35279.09,25101.81,29050.45,14373.26,8370.16
1389763.3574,8052.78,15509.08,35051.16,35184.44,24954.13,29095.56,15028.19,8219.05
1389763.3594,7443.67,15771.68,34948.35,35071.28,24866.25,29019.17,15201.05,8134.51
1389763.3614,4497.53,15386.01,34899.53,34984.88,24892.05,28831.39,14755.2,8156.06
1389763.3634,610.78,14404.49,34927.61,34970.34,25029.95,28621.87,13813.69,8272.98
1389763.3654,-1322.6,13519.48,35039.33,35070.61,25195.65,28559.5,13017.32,8438.73
1389763.3674,-225.35,13282.73,35164.74,35214.91,25287.77,28675.18,12860.11,8539.73
1389763.3694,2623.46,13723.85,35216.96,35295.3,25261.41,28862.34,13343.0,8517.5
1389763.3714,5597.02,14480.83,35181.24,35284.24,25142.96,29010.78,14087.77,8399.58
1389763.3734,7808.64,15313.87,35084.68,35218.15,24986.17,29087.12,14843.13,8250.76
1389763.3754,7867.62,15751.08,34967.86,35103.23,24870.3,29034.71,15197.9,8141.71
1389763.3774,5739.74,15610.27,34888.08,35003.48,24847.7,28886.13,14992.29,8120.3
1389763.3794,1816.46,14777.14,34897.71,34959.7,24961.76,28679.37,14159.49,8229.69
1389763.3814,-975.94,13775.11,34993.65,35012.92,25130.32,28551.01,13238.86,8390.28
1389763.3834,-946.71,13263.85,35112.0,35140.85,25253.3,28592.4,12818.81,8503.82
1389763.3854,1629.5,13514.95,35188.87,35249.76,25260.26,28771.36,13125.85,8509.73
1389763.3874,4573.73,14196.87,35191.59,35285.38,25180.06,28953.6,13807.39,8438.64
1389763.3894,7287.41,15054.32,35113.82,35232.21,25029.09,29079.49,14608.05,8299.35
1389763.3914,8053.21,15646.41,34987.74,35109.52,24879.94,29076.25,15124.89,8159.02
1389763.3934,6754.35,15737.96,34907.63,35028.32,24833.4,28972.58,15149.17,8113.0
1389763.3954,3158.71,15116.17,34883.69,34963.28,24910.98,28750.23,14491.46,8182.96
1389763.3974,-298.12,14084.01,34952.02,34993.41,25079.68,28582.19,13518.38,8340.03
1389763.3994,-1310.54,13362.17,35086.16,35119.35,25244.81,28575.09,12891.96,8496.24
1389763.4014,649.21,13380.1,35199.03,35258.54,25303.13,28723.62,12980.65,8549.02
1389763.4034,3559.64,13948.87,35214.81,35309.94,25238.33,28900.87,13580.71,8478.79
1389763.4054,6516.6,14773.9,35162.02,35286.96,25103.0,29050.78,14378.12,8336.78
1389763.4074,8054.21,15510.37,35058.98,35186.01,24954.18,29100.04,15032.72,8198.17
1389763.4094,7469.13,15776.68,34957.84,35076.53,24869.54,29011.97,15207.58,8121.16
1389763.4114,4552.03,15396.07,34897.0,34992.03,24885.85,28821.71,14774.52,8148.48
1389763.4134,665.33,14427.0,34930.95,34987.26,25031.14,28632.79,13835.0,8292.39
1389763.4154,-1302.77,13534.31,35041.38,35077.48,25200.99,28559.64,13031.77,8453.18
1389763.4174,-247.81,13273.77,35162.83,35214.76,25294.59,28652.91,12858.73,8544.83
1389763.4194,2588.32,13705.88,35210.57,35290.2,25262.74,28833.06,13330.08,8521.13
1389763.4214,5557.54,14462.28,35172.04,35281.81,25144.39,28980.5,14068.18,8410.5
1389763.4234,7782.51,15292.41,35071.9,35204.22,24980.74,29060.65,14831.97,8252.43
1389763.4254,7872.3,15729.76,34954.27,35087.26,24862.2,29029.56,15202.52,8139.04
1389763.4274,5774.26,15605.36,34883.93,34988.36,24844.32,28891.9,15008.36,8119.49
1389763.4294,1837.44,14772.32,34886.13,34943.25,24952.94,28680.76,14165.21,8224.11
1389763.4314,-955.06,13783.84,34975.77,35011.63,25125.55,28562.98,13246.01,8386.04
1389763.4334,-966.22,13261.75,35101.32,35145.24,25253.49,28605.56,12818.05,8502.15
1389763.4354,1595.69,13513.66,35187.01,35262.83,25266.27,28765.82,13121.89,8516.31
1389763.4374,4532.53,14190.68,35194.88,35302.26,25189.07,28939.63,13801.72,8447.36
1389763.4394,7285.02,15060.9,35132.94,35263.02,25046.02,29083.78,14627.17,8307.79
1389763.4414,8058.64,15658.19,35019.69,35146.62,24908.12,29096.18,15155.22,8176.28
1389763.4434,6802.27,15745.88,34924.08,35037.19,24851.33,28980.4,15169.53,8116.91
1389763.4454,3199.77,15115.07,34892.85,34966.9,24922.76,28753.43,14502.29,8180.33
1389763.4474,-242.81,14094.83,34962.28,34994.37,25088.93,28581.81,13530.54,8335.78
1389763.4494,-1327.13,13361.6,35092.6,35123.16,25251.44,28572.28,12890.01,8493.95
1389763.4514,634.81,13372.57,35195.59,35260.2,25302.51,28715.57,12966.35,8544.59
1389763.4534,3500.61,13927.03,35207.75,35303.55,25236.18,28886.51,13541.7,8481.07
1389763.4554,6491.71,14764.26,35161.45,35290.39,25104.29,29042.39,14344.07,8360.77
1389763.4574,8032.61,15504.7,35060.31,35194.78,24956.37,29097.56,15015.75,8225.68
1389763.4594,7505.37,15778.54,34945.25,35076.57,24855.52,29025.27,15226.18,8130.84
1389763.4614,4564.0,15401.7,34884.65,34986.31,24876.07,28837.54,14794.78,8148.29
1389763.4634,711.35,14439.82,34922.89,34982.21,25023.37,28634.84,13853.27,8283.57
1389763.4654,-1318.31,13548.42,35044.96,35092.74,25204.61,28569.03,13059.38,8454.85
1389763.4674,-258.64,13295.94,35172.61,35248.71,25304.99,28672.41,12886.76,8549.12
1389763.4694,2535.15,13718.13,35219.72,35313.99,25271.8,28840.97,13334.42,8523.18
1389763.4714,5538.65,14468.62,35188.73,35303.02,25155.12,28982.55,14047.1,8417.27
1389763.4734,7754.09,15297.13,35096.84,35229.21,24995.33,29072.1,14819.1,8269.17
1389763.4754,7899.81,15738.78,34975.91,35105.04,24869.02,29033.04,15196.9,8146.19
1389763.4774,5804.59,15608.41,34891.18,34998.61,24843.17,28881.46,14996.1,8107.85
1389763.4794,1902.44,14784.39,34889.65,34956.98,24952.13,28661.64,14164.74,8205.37
1389763.4814,-957.82,13786.27,34975.77,35016.59,25125.22,28541.52,13247.11,8376.74
1389763.4834,-967.93,13262.89,35105.42,35151.1,25260.26,28588.16,12813.0,8511.5
1389763.4854,1552.82,13504.7,35191.11,35262.11,25271.61,28765.35,13109.02,8529.95
1389763.4874,4484.08,14167.5,35184.67,35290.58,25182.3,28931.29,13775.59,8445.93
1389763.4894,7230.38,15035.92,35121.73,35253.24,25040.58,29066.09,14591.79,8310.27
1389763.4914,8080.91,15653.23,35028.08,35159.93,24922.66,29085.5,15134.62,8194.26
1389763.4934,6824.92,15753.37,34941.87,35052.83,24866.68,28987.03,15164.47,8138.51
1389763.4954,3267.34,15135.58,34906.49,34975.34,24923.66,28779.18,14519.55,8191.82
1389763.4974,-218.2,14115.48,34968.9,35010.25,25082.64,28607.42,13548.9,8337.88
1389763.4994,-1328.09,13367.08,35093.03,35137.04,25242.38,28566.94,12895.97,8479.83
1389763.5014,599.29,13367.94,35201.6,35272.98,25300.93,28702.55,12956.72,8524.47
1389763.5034,3487.02,13920.36,35226.49,35329.78,25248.24,28884.37,13533.07,8487.94
1389763.5054,6467.82,14750.91,35176.0,35308.37,25115.87,29024.65,14327.34,8377.17
1389763.5074,8022.21,15486.58,35067.94,35208.09,24963.33,29072.62,14986.52,8238.36
1389763.5094,7518.39,15775.16,34956.46,35086.49,24864.77,29001.76,15200.43,8147.53
1389763.5114,4605.58,15400.79,34898.57,34989.41,24878.03,28813.56,14776.42,8161.97
1389763.5134,743.58,14444.88,34930.95,34979.3,25017.65,28610.9,13846.97,8294.96
1389763.5154,-1318.07,13541.37,35050.35,35081.2,25204.42,28544.14,13036.06,8469.3
1389763.5174,-296.12,13276.67,35163.31,35216.38,25295.69,28636.89,12850.33,8554.32
1389763.5194,2491.28,13689.42,35208.18,35297.68,25263.84,28811.79,13309.96,8524.09
1389763.5214,5506.37,14450.69,35178.95,35306.74,25147.11,28975.35,14063.65,8413.65
1389763.5234,7747.46,15284.44,35092.64,35241.75,24993.52,29080.63,14834.93,8264.4
1389763.5254,7929.95,15744.74,34981.4,35120.06,24878.65,29051.21,15208.58,8146.72
1389763.5274,5842.4,15618.85,34900.0,35015.83,24855.52,28907.02,14998.49,8116.29
1389763.5294,1957.89,14803.79,34896.57,34973.2,24958.76,28687.72,14176.32,8218.24
1389763.5314,-936.08,13796.09,34984.97,35035.42,25129.99,28555.02,13245.82,8382.7
1389763.5334,-981.14,13270.76,35111.38,35173.8,25258.73,28591.11,12813.62,8495.67
1389763.5354,1507.71,13500.74,35197.17,35288.96,25274.09,28773.5,13102.44,8507.3
1389763.5374,4481.84,14180.47,35204.7,35327.39,25195.22,28959.47,13782.26,8441.07
1389763.5394,7219.74,15042.59,35141.9,35285.05,25053.84,29072.91,14589.17,8314.94
1389763.5414,8110.29,15663.05,35030.32,35163.5,24917.8,29062.94,15131.28,8191.49
1389763.5434,6852.63,15758.75,34928.04,35041.15,24848.61,28953.36,15158.23,8128.93
1389763.5454,3309.73,15147.26,34885.08,34956.22,24901.2,28733.45,14509.35,8179.43
1389763.5474,-233.13,14108.33,34936.34,34968.09,25056.37,28557.07,13527.78,8324.58
1389763.5494,-1328.28,13368.27,35068.61,35093.98,25224.07,28547.91,12881.76,8484.03
1389763.5514,546.98,13359.45,35177.0,35228.11,25280.53,28692.3,12942.65,8540.44
1389763.5534,3458.69,13915.92,35201.22,35285.48,25222.83,28865.87,13527.92,8483.22
1389763.5554,6414.7,14733.46,35153.25,35266.36,25090.27,29013.06,14311.46,8353.43
1389763.5574,8045.34,15487.91,35045.53,35175.57,24936.73,29069.86,14988.85,8200.84
1389763.5594,7536.79,15781.6,34941.25,35065.61,24845.65,29009.87,15211.49,8113.1
1389763.5614,4694.84,15432.79,34888.75,34983.73,24869.49,28831.87,14808.13,8138.94
1389763.5634,783.68,14473.58,34927.18,34975.53,25010.83,28625.92,13872.34,8276.23
1389763.5654,-1278.45,13571.31,35051.02,35078.39,25192.65,28560.45,13068.49,8447.93
1389763.5674,-316.38,13299.18,35183.34,35226.4,25299.08,28662.26,12881.23,8549.69
1389763.5694,2500.53,13711.5,35233.45,35310.18,25274.18,28847.46,13325.03,8527.47
1389763.5714,5463.98,14459.85,35201.32,35313.99,25162.51,29011.3,14054.49,8423.85
1389763.5734,7768.54,15298.99,35109.52,35251.14,25006.49,29110.29,14820.77,8275.7
1389763.5754,7945.11,15758.33,34991.7,35138.8,24883.94,29074.0,15201.28,8155.06
1389763.5774,5910.54,15635.73,34905.39,35029.61,24850.66,28915.84,15003.83,8122.3
1389763.5794,1990.7,14817.95,34895.61,34964.28,24953.51,28684.19,14191.82,8216.81
1389763.5814,-906.28,13809.92,34987.02,35028.18,25130.7,28548.05,13271.71,8382.7
1389763.5834,-1020.48,13268.47,35115.01,35169.65,25266.22,28587.87,12823.39,8511.21
1389763.5854,1486.59,13490.96,35202.17,35289.82,25283.29,28758.67,13096.48,8526.85
1389763.5874,4406.88,14143.47,35195.4,35309.99,25190.83,28918.94,13753.84,8438.02
1389763.5894,7171.35,14993.96,35121.45,35260.49,25032.81,29046.21,14557.98,8287.86
1389763.5914,8066.32,15619.9,35006.15,35143.19,24889.09,29066.47,15112.35,8153.15
1389763.5934,6882.19,15740.73,34921.32,35039.38,24836.59,28976.21,15159.75,8110.24
1389763.5954,3346.35,15150.12,34885.41,34959.65,24899.82,28757.62,14531.33,8173.9
1389763.5974,-195.74,14119.48,34946.83,34984.5,25064.04,28576.81,13548.47,8329.06
1389763.5994,-1356.17,13359.79,35068.23,35097.13,25223.45,28553.39,12878.32,8478.64
1389763.6014,498.96,13337.04,35176.9,35232.02,25285.39,28699.31,12930.82,8534.15
1389763.6034,3405.95,13887.93,35198.6,35283.28,25226.31,28872.45,13503.31,8473.73
1389763.6054,6382.75,14712.29,35149.01,35266.12,25090.75,29019.17,14295.91,8347.27
1389763.6074,8033.37,15482.38,35055.5,35189.54,24949.41,29084.83,14993.86,8217.1
1389763.6094,7556.34,15778.26,34953.07,35077.53,24858.53,29023.46,15219.79,8135.13
1389763.6114,4739.19,15435.7,34890.08,34978.3,24869.02,28850.37,14817.29,8143.95
1389763.6134,818.87,14474.06,34919.22,34961.75,25007.25,28648.95,13882.3,8270.26
1389763.6154,-1281.55,13569.98,35042.72,35064.61,25191.07,28582.05,13063.62,8425.48
1389763.6174,-351.48,13286.78,35179.52,35215.86,25305.27,28671.22,12870.12,8533.38
1389763.6194,2463.01,13705.16,35234.84,35306.6,25284.15,28856.57,13328.7,8523.13
1389763.6214,5421.59,14443.45,35199.84,35307.55,25166.18,29014.16,14056.11,8417.08
1389763.6234,7752.56,15288.45,35111.19,35243.9,25013.26,29106.29,14827.68,8277.37
1389763.6254,7930.71,15745.16,34998.71,35131.12,24899.49,29071.38,15207.96,8167.27
1389763.6274,5957.41,15649.27,34917.98,35030.56,24873.45,28924.95,15042.88,8143.09
1389763.6294,2030.04,14824.3,34895.81,34958.7,24959.09,28683.81,14210.04,8220.34
1389763.6314,-875.57,13821.75,34984.55,35014.3,25128.13,28550.2,13278.39,8377.55
1389763.6334,-1039.27,13274.77,35117.44,35158.83,25264.46,28583.86,12832.88,8506.97
1389763.6354,1458.93,13498.07,35204.03,35284.48,25277.19,28757.24,13121.03,8527.8
1389763.6374,4373.36,14155.48,35207.94,35324.82,25201.23,28934.15,13784.46,8454.71
1389763.6394,7186.13,15024.95,35150.72,35286.38,25062.13,29071.24,14586.55,8316.28
1389763.6414,8069.37,15638.4,35030.66,35157.92,24918.8,29078.3,15111.4,8184.05
1389763.6434,6907.85,15738.78,34914.59,35024.93,24836.5,28962.71,15150.55,8108.28
1389763.6454,3374.77,15138.58,34872.44,34952.88,24887.56,28747.99,14519.36,8156.4
1389763.6474,-140.0,14128.4,34944.35,34992.65,25056.37,28582.96,13557.34,8317.57
1389763.6494,-1370.81,13366.56,35071.28,35110.86,25225.59,28552.82,12883.09,8476.54
1389763.6514,485.52,13330.99,35169.65,35228.83,25274.71,28683.62,12920.52,8532.33
1389763.6534,3356.12,13871.58,35192.4,35269.55,25213.91,28868.01,13490.58,8483.32
1389763.6554,6352.0,14694.5,35144.52,35249.62,25080.25,29017.17,14278.22,8357.0
1389763.6574,7975.1,15448.72,35043.53,35159.02,24932.34,29062.94,14961.1,8211.18
1389763.6594,7570.89,15764.43,34941.96,35059.65,24847.03,29007.58,15208.2,8126.5
1389763.6614,4746.15,15425.68,34875.35,34964.95,24863.29,28827.15,14811.57,8135.99
1389763.6634,857.11,14472.39,34898.95,34948.11,25002.2,28625.44,13876.82,8259.49
1389763.6654,-1297.9,13562.16,35020.26,35051.73,25184.35,28556.4,13048.79,8429.48
1389763.6674,-382.66,13273.91,35156.64,35209.56,25293.5,28650.67,12849.38,8538.44
1389763.6694,2396.06,13686.42,35223.11,35308.27,25284.2,28835.49,13306.05,8535.43
1389763.6714,5385.92,14428.0,35195.64,35320.38,25173.57,28988.17,14036.23,8427.33
1389763.6734,7688.24,15251.16,35094.74,35248.71,25004.72,29065.33,14788.77,8261.73
1389763.6754,7915.55,15708.11,34969.76,35131.36,24867.01,29025.46,15174.3,8122.78
1389763.6774,5944.87,15615.75,34882.93,35024.22,24831.06,28877.83,15010.45,8081.29
1389763.6794,2067.95,14817.29,34876.97,34959.99,24933.29,28652.96,14196.78,8189.35
1389763.6814,-879.43,13812.97,34964.61,35000.28,25110.92,28524.26,13257.7,8368.45
1389763.6834,-1043.08,13269.76,35108.67,35135.46,25259.93,28576.66,12809.95,8517.03
1389763.6854,1420.4,13485.1,35202.7,35254.53,25281.15,28752.04,13080.5,8536.48
1389763.6874,4357.48,14139.56,35206.51,35292.34,25208.76,28927.95,13736.3,8465.91
1389763.6894,7162.09,15012.22,35149.01,35262.02,25068.43,29070.38,14561.94,8331.92
1389763.6914,8092.45,15631.96,35029.46,35153.77,24922.56,29078.92,15108.59,8187.2
1389763.6934,6943.18,15745.55,34923.37,35030.66,24845.6,28967.38,15150.26,8110.81
1389763.6954,3456.55,15158.8,34881.02,34948.78,24899.68,28755.86,14530.8,8165.74
1389763.6974,-107.0,14146.38,34940.49,34976.44,25061.8,28587.11,13567.93,8322.34
1389763.6994,-1362.75,13367.99,35063.13,35095.12,25225.98,28570.27,12892.39,8479.02
1389763.7014,457.91,13332.89,35173.52,35229.16,25286.68,28700.88,12927.92,8536.53
1389763.7034,3333.71,13869.76,35201.12,35290.01,25234.37,28871.78,13490.01,8482.03
1389763.7054,6328.39,14696.03,35158.92,35269.07,25104.48,29015.64,14277.6,8359.34
1389763.7074,7982.02,15451.39,35053.78,35177.28,24949.6,29069.57,14962.06,8209.71
1389763.7094,7595.97,15772.01,34941.01,35064.84,24849.47,29001.19,15209.72,8118.3
1389763.7114,4795.6,15440.51,34881.64,34973.91,24861.53,28821.76,14821.01,8133.84
1389763.7134,910.09,14506.91,34912.88,34965.66,24999.38,28621.3,13894.94,8268.31
1389763.7154,-1284.22,13581.04,35022.79,35060.55,25180.3,28547.0,13058.0,8438.02
1389763.7174,-404.74,13277.25,35142.33,35202.32,25278.48,28639.42,12845.52,8532.38
1389763.7194,2356.96,13666.54,35193.64,35284.81,25254.4,28825.48,13280.68,8504.77
1389763.7214,5355.55,14411.07,35167.46,35287.96,25142.58,28993.9,14006.23,8398.53
1389763.7234,7677.84,15239.0,35074.29,35218.91,24983.46,29093.51,14762.83,8246.09
1389763.7254,7941.06,15714.46,34957.27,35103.09,24857.76,29041.44,15164.09,8125.74
1389763.7274,5988.03,15630.15,34880.07,35009.29,24828.82,28897.15,15012.79,8101.56
1389763.7294,2144.77,14850.19,34881.17,34967.62,24935.34,28683.09,14217.09,8201.03
1389763.7314,-830.6,13841.92,34980.78,35025.74,25119.45,28551.3,13280.3,8374.41
1389763.7334,-1028.68,13289.69,35121.11,35162.98,25264.46,28591.16,12817.34,8513.4
1389763.7354,1384.59,13482.72,35205.7,35276.66,25282.67,28758.43,13069.63,8533.86
1389763.7374,4338.93,14133.74,35204.08,35298.54,25196.32,28930.14,13724.09,8453.27
1389763.7394,7100.82,14986.47,35136.37,35247.47,25050.31,29067.66,14535.57,8316.18
1389763.7414,8089.35,15625.24,35019.78,35137.09,24909.5,29084.64,15104.92,8179.71
1389763.7434,6961.01,15752.7,34921.46,35030.99,24845.13,28979.3,15167.19,8112.96
1389763.7454,3513.34,15178.59,34873.39,34949.02,24895.05,28763.25,14555.6,8157.25
1389763.7474,-88.26,14153.48,34928.71,34971.58,25056.6,28590.87,13559.25,8308.75
1389763.7494,-1327.51,13387.49,35059.74,35096.32,25222.07,28574.04,12887.48,8469.15
1389763.7514,426.53,13341.33,35175.61,35233.79,25286.15,28718.57,12921.95,8536.01
1389763.7534,3327.32,13880.16,35204.65,35289.96,25233.65,28890.42,13484.1,8478.5
1389763.7554,6280.8,14689.02,35148.2,35269.22,25101.33,29028.94,14254.76,8333.73
1389763.7574,7998.23,15452.77,35042.58,35179.05,24947.26,29082.35,14949.51,8182.15
1389763.7594,7601.74,15783.03,34952.5,35077.0,24860.91,29025.03,15209.72,8113.48
1389763.7614,4867.27,15459.59,34883.65,34977.3,24864.3,28849.37,14826.78,8129.36
1389763.7634,935.6,14510.35,34901.77,34948.59,24994.42,28634.27,13902.48,8260.54
1389763.7654,-1242.97,13590.67,35019.02,35041.86,25172.9,28554.73,13072.21,8430.91
1389763.7674,-435.16,13276.24,35146.43,35185.29,25279.57,28653.67,12841.42,8535.58
1389763.7694,2345.51,13659.38,35197.45,35275.61,25254.63,28829.43,13265.13,8515.79
1389763.7714,5296.47,14391.47,35170.56,35280.8,25143.72,28970.15,13976.34,8407.78
1389763.7734,7677.27,15237.62,35083.77,35221.77,24986.03,29065.04,14756.25,8257.1
1389763.7754,7947.54,15728.48,34975.29,35118.77,24867.06,29050.88,15173.25,8145.05
1389763.7774,6043.58,15638.64,34881.36,35008.39,24827.39,28892.57,15011.26,8095.22
1389763.7794,2176.09,14856.96,34872.97,34955.08,24928.76,28669.12,14227.82,8178.62
1389763.7814,-809.67,13848.31,34964.95,35009.82,25103.62,28531.46,13302.8,8353.95
1389763.7834,-1068.5,13282.01,35095.65,35143.05,25247.62,28573.09,12822.3,8495.43
1389763.7854,1369.86,13478.85,35191.78,35266.69,25279.38,28762.96,13074.78,8524.8
1389763.7874,4294.3,14128.73,35191.11,35296.4,25198.65,28934.39,13726.09,8451.03
1389763.7894,7080.89,14969.49,35114.67,35247.14,25045.06,29061.56,14521.74,8303.69
1389763.7914,8069.18,15608.36,34995.51,35130.65,24899.49,29076.82,15084.65,8159.59
1389763.7934,6979.42,15745.55,34904.25,35023.6,24834.78,28970.15,15153.84,8094.93
1389763.7954,3545.9,15189.46,34870.29,34952.79,24892.38,28756.57,14557.41,8144.9
1389763.7974,-59.46,14166.83,34931.76,34977.58,25051.26,28574.71,13593.68,8298.64
1389763.7994,-1352.41,13390.3,35058.07,35096.36,25210.53,28550.25,12917.23,8457.47
1389763.8014,379.04,13336.47,35176.47,35238.56,25278.29,28691.87,12946.42,8528.28
1389763.8034,3280.88,13881.21,35210.8,35300.26,25231.79,28882.08,13511.33,8493.14
1389763.8054,6261.68,14698.98,35176.81,35291.01,25110.01,29055.65,14281.7,8379.41
1389763.8074,8008.05,15470.79,35076.34,35201.94,24952.84,29125.6,14962.15,8225.68
1389763.8094,7622.05,15782.31,34955.46,35074.19,24838.88,29045.54,15199.95,8105.23
1389763.8114,4935.55,15488.63,34897.19,34988.46,24848.42,28867.77,14852.72,8110.91
1389763.8134,1006.22,14550.64,34928.71,34979.3,24992.99,28665.98,13937.9,8250.76
1389763.8154,-1224.33,13613.37,35034.14,35070.47,25181.53,28572.52,13091.09,8430.63
1389763.8174,-476.74,13266.99,35147.05,35202.7,25294.45,28654.15,12834.41,8540.73
1389763.8194,2304.7,13651.71,35200.31,35288.05,25279.62,28820.18,13252.16,8532.19
1389763.8214,5250.26,14379.03,35174.09,35290.05,25170.95,28958.28,13958.98,8436.35
1389763.8234,7663.63,15230.13,35085.59,35221.87,25010.35,29064.42,14745.67,8279.28
1389763.8254,7943.06,15711.69,34971.15,35101.85,24890.81,29041.1,15160.18,8157.44
1389763.8274,6093.36,15646.17,34890.47,34994.94,24864.15,28896.86,15028.96,8133.13
1389763.8294,2208.95,14864.88,34884.74,34949.69,24969.53,28674.65,14239.65,8227.02
1389763.8314,-783.97,13861.28,34978.06,35020.74,25141.43,28540.9,13300.47,8384.37
1389763.8334,-1103.16,13279.06,35118.25,35160.45,25288.97,28574.71,12812.57,8521.61
1389763.8354,1323.18,13471.18,35215.91,35295.16,25315.72,28752.66,13066.77,8536.77
1389763.8374,4226.92,14114.05,35220.2,35346.18,25239.18,28930.33,13723.04,8460.28
1389763.8394,7077.79,14978.27,35151.06,35314.28,25091.22,29067.66,14535.71,8341.27
1389763.8414,8088.73,15628.67,35046.87,35201.46,24956.13,29092.84,15108.73,8238.22
1389763.8434,7048.8,15780.98,34952.84,35079.1,24895.38,29003.34,15176.35,8184.39
1389763.8454,3604.79,15219.07,34901.34,34989.03,24954.08,28781.32,14580.68,8225.3
1389763.8474,13.88,14208.22,34963.47,35012.49,25130.99,28603.22,13624.72,8386.47
1389763.8494,-1349.4,13423.73,35096.32,35133.27,25313.24,28586.77,12935.83,8555.22
1389763.8514,378.8,13357.69,35204.27,35267.21,25375.27,28728.68,12940.27,8618.74
1389763.8534,3242.3,13883.54,35230.45,35316.66,25316.29,28907.25,13493.25,8569.86
1389763.8554,6261.59,14700.13,35193.4,35308.17,25187.97,29056.17,14277.7,8447.17
1389763.8574,7993.51,15472.08,35093.36,35230.12,25034.05,29106.76,14971.45,8304.98
1389763.8594,7668.54,15805.06,34995.85,35130.84,24936.97,29046.01,15235.09,8213.43
1389763.8614,4962.25,15501.07,34931.23,35035.33,24940.11,28867.34,14874.75,8196.02
1389763.8634,1047.23,14562.85,34950.69,35006.48,25071.96,28655.15,13951.11,8306.31
1389763.8654,-1233.39,13629.3,35056.55,35084.92,25248.48,28573.18,13097.53,8475.92
1389763.8674,-471.4,13294.84,35183.24,35226.02,25355.49,28665.59,12847.28,8594.61
1389763.8694,2272.99,13670.45,35241.13,35312.04,25339.27,28840.5,13261.94,8592.75
1389763.8714,5265.71,14413.36,35218.82,35326.77,25238.33,29002.62,13993.79,8501.39
1389763.8734,7666.64,15264.08,35126.31,35267.31,25079.87,29100.09,14779.0,8350.66
1389763.8754,8000.76,15756.04,35007.81,35147.15,24950.55,29075.39,15199.71,8219.53
1389763.8774,6164.41,15701.11,34922.79,35035.23,24912.93,28935.58,15075.21,8170.65
1389763.8794,2304.74,14922.95,34913.69,34983.02,24999.76,28702.83,14274.41,8257.2
1389763.8814,-750.02,13909.2,35002.43,35045.34,25171.38,28564.31,13330.79,8428.77
1389763.8834,-1092.62,13311.96,35133.08,35185.44,25317.72,28597.5,12835.22,8572.01
1389763.8854,1300.05,13492.16,35228.83,35306.03,25352.91,28773.07,13080.41,8605.67
1389763.8874,4227.3,14125.3,35235.12,35342.75,25282.82,28948.45,13729.38,8531.57
1389763.8894,7068.11,14982.94,35164.98,35303.31,25133.9,29084.78,14536.86,8387.23
1389763.8914,8122.73,15629.44,35053.31,35192.02,24990.32,29113.25,15108.4,8254.2
1389763.8934,7107.16,15790.04,34950.36,35073.9,24913.17,29019.74,15200.76,8179.71
1389763.8954,3683.52,15236.71,34899.67,34988.69,24952.8,28803.02,14608.29,8218.19
1389763.8974,45.11,14226.49,34956.03,35012.44,25107.77,28619.29,13634.21,8370.69
1389763.8994,-1352.74,13425.35,35081.82,35128.65,25272.04,28589.63,12924.58,8526.52
1389763.9014,350.09,13351.97,35196.12,35265.02,25338.7,28718.09,12930.3,8587.08
1389763.9034,3214.31,13871.86,35237.65,35336.02,25298.26,28873.07,13488.29,8547.78
1389763.9054,6232.79,14693.21,35203.27,35333.83,25177.58,29029.95,14282.61,8432.82
1389763.9074,8005.38,15463.4,35101.51,35239.89,25021.03,29096.27,14978.17,8287.1
1389763.9094,7708.6,15803.77,34985.45,35118.06,24913.6,29030.95,15220.83,8172.47
1389763.9114,5023.91,15509.99,34917.98,35023.36,24924.23,28863.96,14868.07,8179.95
1389763.9134,1108.12,14586.16,34942.49,35008.48,25055.27,28664.35,13965.27,8317.28
1389763.9154,-1224.61,13635.83,35052.73,35097.65,25225.93,28581.96,13101.53,8487.13
1389763.9174,-499.2,13296.51,35180.81,35242.37,25337.7,28665.64,12840.84,8595.71
1389763.9194,2225.64,13658.91,35234.93,35331.92,25323.68,28840.12,13261.08,8573.2
1389763.9214,5229.33,14396.14,35209.95,35340.69,25221.3,29006.06,13990.69,8460.0
1389763.9234,7657.2,15242.72,35120.92,35264.78,25061.75,29108.19,14777.14,8303.93
1389763.9254,8035.47,15747.88,35003.24,35136.42,24929.86,29082.92,15207.82,8192.35
1389763.9274,6203.84,15692.43,34921.27,35033.47,24893.24,28951.79,15087.65,8169.46
1389763.9294,2370.64,14940.22,34916.55,34989.55,24994.42,28736.98,14315.99,8274.65
1389763.9314,-731.9,13921.07,35000.85,35045.2,25170.33,28605.18,13368.51,8440.88
1389763.9334,-1098.39,13320.5,35127.83,35170.85,25306.99,28627.02,12855.44,8566.05
1389763.9354,1241.16,13473.18,35210.57,35285.91,25324.11,28785.04,13073.26,8577.82
1389763.9374,4183.91,14109.8,35213.38,35326.68,25241.47,28947.98,13721.23,8493.57
1389763.9394,7006.12,14961.53,35143.38,35289.1,25092.03,29071.95,14527.51,8351.61
1389763.9414,8133.32,15626.1,35034.37,35179.19,24951.17,29097.56,15117.55,8222.06
1389763.9434,7118.18,15788.89,34944.92,35060.12,24885.61,28999.43,15191.13,8153.63
1389763.9454,3749.04,15260.65,34907.01,34983.69,24944.26,28798.73,14615.44,8202.65
1389763.9474,66.85,14241.51,34962.37,35004.91,25106.0,28615.05,13638.69,8359.24
1389763.9494,-1340.82,13436.7,35080.58,35120.63,25267.27,28573.9,12919.81,8518.22
1389763.9514,285.34,13346.24,35192.54,35257.01,25335.93,28704.6,12911.46,8585.64
1389763.9534,3184.03,13869.91,35228.69,35320.86,25292.54,28890.23,13468.46,8546.21
1389763.9554,6166.27,14676.81,35186.2,35313.75,25168.33,29050.64,14247.94,8430.86
1389763.9574,8010.2,15454.58,35085.21,35220.87,25009.68,29112.06,14949.09,8280.14
1389763.9594,7712.65,15799.48,34980.11,35101.61,24906.88,29057.7,15222.46,8174.61
1389763.9614,5089.57,15519.67,34915.36,35012.06,24910.83,28880.98,14883.71,8175.18
1389763.9634,1123.67,14593.46,34936.48,34991.75,25037.63,28663.92,13977.43,8296.82
1389763.9654,-1213.17,13639.5,35034.61,35073.0,25198.18,28559.97,13107.49,8457.95
1389763.9674,-558.81,13281.92,35158.3,35212.38,25303.41,28640.42,12836.36,8566.33
1389763.9694,2198.12,13650.09,35227.4,35314.85,25299.03,28824.86,13248.16,8553.03
1389763.9714,5162.1,14377.45,35206.89,35336.07,25203.28,28987.13,13961.79,8454.04
1389763.9734,7634.35,15223.7,35113.77,35280.76,25052.03,29084.5,14745.48,8314.99
1389763.9754,8017.68,15733.15,34989.27,35153.06,24920.18,29053.64,15181.26,8194.88
1389763.9774,6238.75,15686.18,34902.67,35034.76,24880.22,28921.7,15075.45,8155.35
1389763.9794,2393.29,14934.26,34897.81,34973.34,24975.54,28705.74,14311.89,8247.71
1389763.9814,-715.92,13915.92,34993.7,35030.89,25151.59,28573.37,13362.65,8420.28
1389763.9834,-1127.43,13320.78,35134.94,35173.8,25298.93,28606.99,12854.05,8566.14
1389763.9854,1231.91,13489.49,35244.42,35308.99,25336.94,28790.72,13077.69,8605.77
1389763.9874,4166.08,14122.2,35252.15,35347.13,25264.03,28954.8,13708.88,8531.62
1389763.9894,7014.66,14974.02,35187.25,35311.89,25129.23,29078.82,14513.3,8392.57
1389763.9914,8125.5,15632.58,35065.32,35200.84,24988.65,29086.88,15091.9,8253.77
1389763.9934,7140.35,15791.85,34962.37,35091.98,24922.66,28992.85,15183.69,8188.25
1389763.9954,3804.73,15272.14,34917.31,35007.05,24965.43,28792.0,14622.02,8231.69
1389763.9974,94.75,14248.9,34967.09,35011.44,25115.45,28603.22,13644.27,8374.98
1389763.9994,-1364.09,13438.8,35086.59,35124.78,25274.57,28562.79,12923.29,8525.18
1389764.0014,233.65,13336.14,35204.13,35273.27,25344.71,28689.1,12897.68,8591.13
1389764.0034,3131.53,13855.6,35240.27,35344.27,25295.88,28864.91,13444.9,8540.3
1389764.0054,6124.31,14654.73,35198.65,35332.4,25165.27,29017.12,14223.67,8422.18
1389764.0074,7991.98,15450.67,35097.08,35241.51,25011.73,29087.21,14941.22,8282.33
1389764.0094,7714.56,15799.95,34982.88,35113.15,24907.16,29032.28,15218.55,8178.43
1389764.0114,5143.12,15537.93,34911.54,35017.64,24908.35,28865.15,14892.06,8168.94
1389764.0134,1179.65,14610.82,34924.18,34990.74,25036.86,28649.52,13985.21,8293.53
1389764.0154,-1194.05,13665.01,35034.42,35081.1,25218.54,28557.88,13125.47,8474.3
1389764.0174,-592.99,13294.65,35168.13,35230.78,25339.08,28646.81,12838.46,8596.95
1389764.0194,2174.9,13659.76,35236.17,35332.83,25325.02,28835.35,13245.39,8582.55
1389764.0214,5131.29,14381.79,35219.72,35346.94,25220.92,28998.33,13965.99,8479.88
1389764.0234,7631.49,15241.29,35139.14,35285.0,25067.71,29109.2,14764.98,8331.11
1389764.0254,8029.41,15756.51,35030.66,35161.93,24947.98,29102.04,15205.43,8215.48
1389764.0274,6319.86,15726.19,34944.44,35049.87,24909.69,28977.45,15092.66,8180.52
1389764.0294,2456.67,14964.39,34916.6,34976.72,24994.04,28738.93,14322.23,8261.78
1389764.0314,-663.04,13944.87,34995.13,35025.55,25162.51,28564.74,13369.66,8428.05
1389764.0334,-1162.91,13323.64,35130.22,35162.02,25316.29,28592.21,12851.72,8574.3
1389764.0354,1201.34,13482.0,35233.07,35295.44,25352.72,28775.55,13078.41,8605.43
1389764.0374,4098.75,14102.56,35240.13,35330.82,25277.05,28939.73,13701.63,8531.38
1389764.0394,6992.05,14964.06,35182.19,35301.88,25139.76,29071.05,14508.11,8400.35
1389764.0414,8119.87,15636.54,35075.1,35205.56,25000.24,29108.86,15110.54,8266.97
1389764.0434,7200.34,15814.02,34973.01,35090.02,24917.41,29025.46,15224.6,8190.68
1389764.0454,3853.51,15297.51,34922.32,35002.81,24958.66,28808.93,14665.75,8227.11
1389764.0474,160.41,14281.18,34963.8,35015.16,25106.39,28609.57,13688.33,8360.77
1389764.0494,-1368.09,13458.06,35084.87,35125.12,25268.46,28565.36,12951.04,8513.79
1389764.0514,219.92,13345.86,35199.88,35268.36,25335.12,28698.73,12899.35,8576.97
1389764.0534,3086.71,13863.23,35242.04,35332.97,25291.97,28901.72,13451.29,8536.86
1389764.0554,6114.25,14670.9,35206.8,35330.68,25168.71,29062.04,14232.06,8418.85
1389764.0574,7964.23,15451.1,35096.79,35238.94,25004.1,29113.06,14943.17,8262.73
1389764.0594,7748.89,15806.82,34979.06,35122.11,24895.96,29041.01,15226.27,8160.54
1389764.0614,5181.84,15547.71,34903.29,35018.16,24898.2,28877.02,14916.99,8166.98
1389764.0634,1244.12,14634.99,34923.32,34998.37,25029.76,28668.79,14023.5,8294.25
1389764.0654,-1189.28,13675.64,35029.13,35079.67,25204.28,28566.51,13138.44,8451.89
1389764.0674,-605.82,13285.35,35154.25,35209.71,25307.71,28632.5,12817.96,8552.46
1389764.0694,2126.36,13643.22,35226.35,35301.98,25302.51,28822.09,13222.03,8563.66
1389764.0714,5107.5,14366.77,35218.15,35312.66,25214.1,28991.65,13947.68,8488.42
1389764.0734,7606.03,15228.61,35138.04,35253.15,25068.62,29105.24,14754.01,8348.9
1389764.0754,8043.39,15744.12,35017.64,35133.18,24936.25,29083.83,15197.42,8219.86
1389764.0774,6341.65,15720.51,34928.95,35022.36,24886.94,28955.99,15096.0,8172.94
1389764.0794,2536.2,14987.66,34920.74,34974.44,24983.12,28746.8,14350.03,8260.63
1389764.0814,-627.95,13975.43,35007.43,35036.52,25164.85,28605.18,13404.75,8434.11
1389764.0834,-1150.7,13336.71,35132.13,35165.46,25310.81,28619.1,12855.58,8569.86
1389764.0854,1143.79,13468.79,35215.91,35282.19,25344.85,28761.01,13044.31,8593.75
1389764.0874,4057.84,14090.73,35230.31,35329.01,25279.67,28922.66,13683.7,8531.48
1389764.0894,6952.72,14955.0,35175.57,35302.79,25140.19,29062.75,14506.01,8400.2
1389764.0914,8117.49,15624.14,35065.23,35196.59,24991.37,29088.6,15104.49,8257.68
1389764.0934,7207.82,15804.01,34958.22,35077.39,24904.25,28995.18,15211.87,8175.52
1389764.0954,3900.91,15293.27,34911.45,35001.0,24949.27,28797.63,14656.69,8213.57
1389764.0974,198.46,14288.67,34965.23,35019.54,25107.34,28612.33,13691.76,8357.91
1389764.0994,-1357.17,13459.3,35091.6,35136.75,25272.28,28574.37,12953.47,8517.41
1389764.1014,211.67,13352.68,35213.19,35282.28,25342.37,28715.71,12918.28,8592.85
1389764.1034,3077.84,13854.93,35252.77,35345.18,25302.08,28908.45,13451.77,8552.03
1389764.1054,6105.81,14659.12,35209.66,35332.73,25178.05,29053.79,14220.91,8429.58
1389764.1074,7976.2,15445.14,35109.81,35252.91,25022.89,29109.62,14935.16,8282.38
1389764.1094,7795.29,15817.21,34999.14,35139.42,24912.69,29067.95,15238.95,8175.14
1389764.1114,5230.67,15558.86,34922.56,35026.46,24909.31,28904.16,14926.48,8164.79
1389764.1134,1296.81,14649.73,34932.71,34989.22,25035.67,28682.19,14025.21,8272.55
1389764.1154,-1183.89,13678.27,35037.0,35070.38,25212.0,28558.88,13133.38,8434.3
1389764.1174,-598.1,13307.62,35175.71,35222.2,25333.69,28645.76,12839.6,8567.57
1389764.1194,2112.82,13662.91,35254.05,35336.88,25338.08,28840.97,13251.54,8583.02
1389764.1214,5100.54,14379.41,35237.22,35342.98,25238.8,29012.59,13969.33,8484.94
1389764.1234,7596.02,15222.74,35149.86,35268.5,25079.87,29119.92,14751.87,8337.93
1389764.1254,8094.98,15754.99,35031.23,35147.34,24951.41,29104.05,15195.85,8220.86
1389764.1274,6388.09,15734.96,34943.16,35038.43,24911.93,28976.63,15109.3,8186.25
1389764.1294,2593.18,15005.4,34924.51,34989.55,24999.91,28760.1,14370.16,8270.41
1389764.1314,-612.59,13986.45,35011.82,35047.25,25178.58,28611.33,13413.96,8437.25
1389764.1334,-1137.69,13352.06,35146.62,35179.91,25320.25,28617.58,12866.55,8576.73
1389764.1354,1113.13,13471.65,35235.79,35302.55,25348.48,28777.32,13050.84,8605.15
1389764.1374,4053.74,14082.86,35237.6,35329.63,25271.8,28940.16,13674.5,8528.23
1389764.1394,6917.86,14932.54,35174.66,35292.49,25125.46,29077.25,14477.54,8386.28
1389764.1414,8141.28,15623.57,35070.38,35203.79,24980.31,29114.44,15087.08,8246.95
1389764.1434,7232.71,15818.93,34978.63,35106.95,24913.22,29027.51,15202.29,8180.33
1389764.1454,3988.46,15332.89,34937.34,35033.28,24962.67,28836.68,14672.09,8229.45
1389764.1474,226.74,14314.84,34981.64,35028.22,25109.53,28639.75,13694.91,8370.4
1389764.1494,-1334.33,13479.04,35102.71,35139.47,25275.14,28585.2,12947.99,8526.33
1389764.1514,159.31,13345.86,35218.29,35276.85,25351.0,28701.88,12893.82,8601.81
1389764.1534,3051.52,13845.16,35250.1,35335.64,25304.18,28873.54,13431.65,8559.13
1389764.1554,6039.57,14638.81,35205.08,35317.38,25173.71,29024.65,14210.89,8439.59
1389764.1574,7978.2,15435.22,35102.94,35229.97,25018.84,29087.26,14938.55,8285.67
1389764.1594,7783.37,15805.53,34995.23,35113.01,24917.99,29036.29,15223.7,8179.95
1389764.1614,5288.12,15562.49,34924.42,35016.11,24915.32,28874.54,14905.36,8174.85
1389764.1634,1324.8,14659.93,34941.11,34995.75,25037.48,28662.26,14020.02,8295.49
1389764.1654,-1133.3,13696.82,35044.58,35084.06,25211.72,28564.74,13146.83,8456.14
1389764.1674,-635.43,13298.89,35171.23,35227.68,25335.7,28643.23,12841.32,8562.66
1389764.1694,2081.35,13635.21,35241.56,35330.97,25333.03,28829.39,13232.04,8565.76
1389764.1714,5045.94,14351.42,35228.88,35352.71,25234.08,29000.76,13942.05,8478.45
1389764.1734,7589.63,15203.67,35143.33,35293.01,25069.62,29106.19,14738.56,8317.14
1389764.1754,8067.8,15735.06,35025.89,35168.37,24934.72,29085.45,15198.28,8197.59
1389764.1774,6429.15,15726.38,34946.83,35073.71,24891.05,28961.95,15123.08,8163.36
1389764.1794,2637.01,15007.12,34933.62,35010.25,24977.83,28745.65,14379.26,8250.29
1389764.1814,-577.78,13981.39,35010.82,35049.97,25153.93,28593.11,13413.96,8419.47
1389764.1834,-1171.3,13341.62,35140.66,35171.94,25306.75,28603.22,12863.92,8563.81
1389764.1854,1075.7,13460.45,35236.6,35293.25,25347.52,28767.97,13041.64,8600.28
1389764.1874,4008.77,14073.71,35237.6,35327.49,25272.75,28940.25,13666.49,8519.08
1389764.1894,6895.73,14924.34,35176.23,35303.79,25130.7,29082.02,14474.97,8382.46
1389764.1914,8131.51,15620.42,35069.61,35209.85,24991.52,29116.06,15092.09,8259.82
1389764.1934,7271.24,15816.83,34975.01,35098.75,24915.27,29038.1,15221.5,8193.45
1389764.1954,4028.56,15336.13,34923.65,35007.96,24946.07,28837.73,14692.83,8225.63
1389764.1974,263.79,14331.58,34972.62,35017.35,25100.81,28651.05,13722.71,8372.02
1389764.1994,-1328.56,13493.83,35090.16,35121.59,25264.55,28609.04,12979.46,8526.61
1389764.2014,123.07,13343.76,35206.37,35263.07,25344.99,28724.24,12911.66,8598.9
1389764.2034,3015.42,13843.11,35248.0,35339.36,25311.19,28904.01,13438.42,8566.67
1389764.2054,6006.81,14631.65,35206.61,35329.25,25182.77,29015.54,14200.88,8443.79
1389764.2074,7980.63,15442.23,35109.91,35248.76,25024.75,29091.55,14946.51,8292.58
1389764.2094,7795.72,15816.45,35003.95,35136.56,24917.32,29048.92,15252.88,8194.73
1389764.2114,5352.78,15591.62,34941.11,35051.4,24919.94,28887.8,14962.63,8200.12
1389764.2134,1384.07,14689.45,34956.17,35023.46,25048.26,28679.57,14065.65,8317.71
1389764.2154,-1110.74,13720.56,35053.45,35098.41,25220.06,28575.85,13179.11,8478.02
1389764.2174,-685.5,13298.08,35174.56,35232.88,25335.27,28637.79,12843.47,8586.12
1389764.2194,2035.0,13627.72,35237.7,35312.32,25321.15,28809.17,13217.78,8569.48
1389764.2214,4985.33,14330.91,35222.11,35325.29,25215.25,28969.24,13924.31,8454.18
1389764.2234,7577.75,15203.29,35150.29,35272.27,25063.9,29094.37,14734.37,8311.89
1389764.2254,8066.89,15738.06,35037.95,35155.01,24941.21,29086.97,15199.9,8205.61
1389764.2274,6466.72,15735.87,34941.01,35044.48,24891.24,28959.85,15130.24,8168.94
1389764.2294,2659.08,15010.88,34916.5,34987.98,24978.55,28745.32,14381.6,8254.0
1389764.2314,-542.12,13993.22,34996.18,35044.58,25152.64,28597.22,13419.63,8417.99
1389764.2334,-1194.43,13340.76,35133.46,35173.85,25306.9,28612.47,12866.64,8565.95
1389764.2354,1061.06,13451.86,35231.79,35296.97,25349.0,28773.93,13041.21,8600.9
1389764.2374,3950.41,14048.58,35233.79,35323.72,25273.37,28931.57,13649.99,8529.04
1389764.2394,6871.56,14899.73,35174.09,35292.49,25127.56,29068.04,14460.61,8393.81
1389764.2414,8103.42,15588.67,35062.79,35189.3,24978.55,29084.26,15062.24,8249.81
1389764.2434,7287.46,15801.1,34963.99,35083.92,24903.25,29000.29,15202.91,8177.47
1389764.2454,4047.3,15323.59,34921.13,35003.38,24950.46,28806.83,14684.3,8217.05
1389764.2474,306.75,14326.91,34969.24,35021.21,25101.52,28613.86,13721.85,8365.3
1389764.2494,-1355.84,13481.33,35084.44,35131.32,25262.17,28558.64,12961.53,8521.18
1389764.2514,94.6,13330.41,35205.27,35271.46,25337.84,28682.19,12884.62,8596.23
1389764.2534,2937.94,13813.78,35238.13,35337.6,25289.11,28857.52,13399.98,8540.92
1389764.2554,5971.48,14608.81,35202.79,35329.73,25166.71,29015.16,14173.56,8411.31
1389764.2574,7935.0,15416.43,35107.04,35242.94,25015.4,29094.84,14918.62,8264.45
1389764.2594,7814.93,15801.05,34991.41,35120.68,24911.36,29051.97,15240.72,8165.5
1389764.2614,5348.97,15571.41,34916.6,35020.31,24902.2,28883.89,14953.52,8157.3
1389764.2634,1416.64,14677.43,34931.38,34989.98,25030.66,28661.87,14052.87,8263.16
1389764.2654,-1122.43,13714.27,35041.57,35075.0,25209.95,28561.5,13159.61,8446.93
1389764.2674,-692.27,13297.46,35184.82,35218.62,25333.93,28639.89,12840.99,8586.79
1389764.2694,1991.32,13625.58,35258.58,35314.28,25332.55,28825.72,13216.59,8600.9
1389764.2714,4949.57,14322.33,35232.36,35320.91,25228.31,28986.65,13915.25,8512.21
1389764.2734,7515.29,15172.48,35129.46,35254.63,25066.24,29087.98,14709.0,8346.99
1389764.2754,8049.35,15708.35,34996.56,35125.5,24928.14,29067.14,15174.96,8201.65
1389764.2774,6464.86,15715.89,34899.95,35012.15,24878.17,28934.96,15107.82,8154.11
1389764.2794,2694.75,15008.59,34886.17,34963.52,24967.1,28721.96,14377.5,8245.66
1389764.2814,-540.78,14000.66,34979.06,35027.51,25151.21,28583.53,13424.92,8420.56
1389764.2834,-1211.26,13340.05,35116.96,35157.83,25308.52,28600.31,12855.39,8567.52
1389764.2854,998.31,13445.86,35217.19,35278.47,25343.14,28757.77,13023.52,8603.72
1389764.2874,3900.91,14039.14,35222.82,35312.08,25269.94,28922.32,13635.11,8530.76
1389764.2894,6830.41,14896.35,35169.51,35295.44,25137.33,29064.75,14448.79,8402.3
1389764.2914,8094.88,15579.03,35053.31,35198.69,24982.5,29088.83,15060.71,8245.18
1389764.2934,7290.75,15792.71,34947.07,35083.2,24894.77,29003.43,15198.61,8150.05
1389764.2954,4080.82,15322.31,34901.53,34994.22,24935.73,28806.83,14679.53,8189.06
1389764.2974,320.24,14327.43,34949.26,34999.9,25088.69,28611.14,13721.18,8332.54
1389764.2994,-1373.48,13477.33,35073.19,35117.92,25259.16,28563.69,12969.21,8485.84
1389764.3014,74.48,13333.47,35199.79,35265.88,25342.13,28693.44,12906.41,8564.47
1389764.3034,2908.13,13805.2,35238.94,35327.72,25294.5,28866.06,13403.32,8530.86
1389764.3054,5936.58,14598.94,35205.75,35320.14,25176.0,29026.03,14173.7,8427.0
1389764.3074,7916.12,15393.64,35109.0,35228.59,25025.47,29099.66,14904.02,8288.91
1389764.3094,7828.62,15780.74,34994.94,35103.47,24911.74,29045.01,15210.11,8187.58
1389764.3114,5394.41,15557.48,34914.78,34998.13,24901.54,28880.17,14929.39,8182.24
1389764.3134,1467.7,14679.72,34926.32,34974.96,25030.14,28664.5,14054.11,8305.79
1389764.3154,-1124.1,13706.16,35032.9,35056.98,25211.72,28560.31,13164.57,8479.98
1389764.3174,-713.35,13288.88,35160.5,35197.31,25332.22,28631.45,12841.27,8592.85
1389764.3194,1939.2,13606.07,35229.64,35305.08,25330.07,28811.6,13206.77,8591.94
1389764.3214,4910.37,14307.5,35215.57,35326.53,25234.18,28975.35,13896.04,8505.39
1389764.3234,7477.95,15156.94,35131.74,35270.74,25075.2,29077.96,14682.29,8357.34
1389764.3254,8085.68,15717.41,35017.02,35160.35,24938.2,29068.66,15171.1,8225.49
1389764.3274,6507.45,15733.43,34928.76,35064.18,24895.05,28948.22,15120.22,8179.62
1389764.3294,2764.8,15026.29,34902.67,35003.0,24977.16,28726.49,14396.1,8239.41
1389764.3314,-549.89,13984.3,34968.43,35039.48,25144.91,28561.26,13420.92,8388.47
1389764.3334,-1236.92,13324.5,35102.32,35167.36,25303.37,28569.75,12848.38,8552.12
1389764.3354,939.66,13419.53,35210.09,35289.2,25348.38,28737.02,13007.21,8609.92
1389764.3374,3878.64,14029.31,35227.97,35329.54,25276.0,28916.74,13628.39,8549.6
1389764.3394,6768.99,14871.07,35166.84,35302.4,25128.84,29052.64,14424.52,8406.93
1389764.3414,8105.66,15575.84,35061.98,35214.24,24983.98,29092.17,15059.62,8260.39
1389764.3434,7316.4,15791.37,34956.75,35100.56,24898.34,29012.16,15210.92,8172.8
1389764.3454,4149.49,15325.6,34896.76,35008.1,24927.67,28816.27,14695.93,8192.11
1389764.3474,333.36,14317.66,34936.15,35008.48,25080.02,28621.2,13726.86,8328.06
1389764.3494,-1347.73,13472.7,35066.94,35122.64,25259.31,28577.57,12977.32,8501.2
1389764.3514,16.02,13309.72,35194.83,35270.74,25351.67,28670.12,12888.48,8594.99
1389764.3534,2882.62,13777.64,35223.63,35324.24,25304.51,28833.82,13389.11,8558.23
1389764.3554,5870.77,14564.23,35189.39,35318.95,25181.01,28993.99,14154.87,8446.31
1389764.3574,7926.89,15382.82,35102.28,35254.34,25024.8,29083.45,14902.55,8300.4
1389764.3594,7846.02,15791.08,34998.09,35151.3,24917.99,29051.64,15220.41,8194.35
1389764.3614,5465.37,15582.04,34921.51,35042.24,24904.78,28888.23,14947.27,8184.34
1389764.3634,1506.95,14698.32,34933.52,35004.91,25023.89,28675.85,14080.1,8293.3
1389764.3654,-1077.13,13719.46,35030.51,35070.61,25196.94,28569.99,13188.22,8455.95
1389764.3674,-747.06,13281.49,35150.1,35194.45,25315.96,28633.6,12828.88,8575.63
1389764.3694,1905.49,13582.52,35216.62,35290.29,25310.95,28816.27,13180.31,8575.06
1389764.3714,4872.61,14293.0,35208.85,35313.85,25218.3,28968.77,13889.74,8495.62
1389764.3734,7495.55,15162.57,35140.18,35269.07,25074.25,29082.87,14693.6,8362.25
1389764.3754,8081.29,15717.84,35012.63,35151.3,24931.58,29078.58,15172.29,8224.3
1389764.3774,6541.73,15724.66,34911.78,35042.86,24864.96,28937.87,15109.78,8143.24
1389764.3794,2815.06,15036.39,34891.04,34979.25,24944.5,28713.61,14392.66,8197.79
1389764.3814,-479.03,14021.68,34983.78,35033.9,25135.09,28574.71,13436.41,8373.55
1389764.3834,-1224.85,13351.49,35116.72,35155.16,25296.88,28582.58,12854.2,8547.02
1389764.3854,920.92,13431.07,35218.1,35280.9,25343.28,28740.93,13009.31,8607.2
1389764.3874,3852.03,14039.85,35236.12,35335.54,25277.57,28917.94,13630.34,8545.78
1389764.3894,6777.1,14882.61,35179.57,35314.23,25140.72,29061.75,14428.66,8418.27
1389764.3914,8124.64,15586.62,35062.13,35209.76,24986.41,29092.36,15054.42,8276.51
1389764.3934,7347.39,15800.38,34956.84,35091.79,24898.82,29008.06,15197.56,8197.21
1389764.3954,4230.36,15360.12,34910.02,35009.87,24935.06,28817.61,14708.9,8228.78
1389764.3974,408.6,14364.91,34957.37,35029.08,25089.65,28629.21,13750.51,8370.69
1389764.3994,-1329.28,13502.79,35071.09,35133.08,25257.07,28575.19,12986.04,8519.79
1389764.4014,-18.79,13313.63,35187.68,35267.79,25340.27,28695.16,12886.0,8589.17
1389764.4034,2849.29,13783.27,35226.02,35329.01,25296.02,28860.76,13384.68,8547.02
1389764.4054,5853.75,14573.91,35202.08,35329.16,25186.59,29016.55,14154.53,8445.41
1389764.4074,7922.41,15394.59,35108.76,35253.1,25030.43,29094.32,14901.97,8299.21
1389764.4094,7844.5,15786.7,34991.46,35134.56,24915.03,29045.59,15224.36,8193.02
1389764.4114,5526.69,15594.53,34919.08,35030.04,24903.25,28890.42,14965.97,8179.47
1389764.4134,1540.8,14700.65,34915.36,34976.82,25009.11,28659.97,14078.38,8281.52
1389764.4154,-1065.73,13728.05,35016.92,35056.31,25185.4,28551.49,13183.36,8445.07
1389764.4174,-776.15,13292.84,35162.36,35207.99,25319.87,28630.26,12838.79,8574.73
1389764.4194,1904.58,13603.4,35245.42,35321.05,25326.64,28821.14,13197.71,8580.59
1389764.4214,4843.95,14295.77,35236.51,35339.74,25237.13,28984.84,13884.59,8505.3
1389764.4234,7494.5,15160.28,35157.26,35283.95,25085.69,29103.85,14686.92,8366.73
1389764.4254,8079.48,15712.64,35032.71,35159.45,24945.17,29092.12,15168.14,8232.07
1389764.4274,6616.59,15752.6,34945.44,35054.35,24892.48,28964.71,15135.91,8182.67
1389764.4294,2876.9,15065.91,34917.79,34985.98,24966.77,28732.16,14426.61,8251.95
1389764.4314,-426.77,14046.77,34991.65,35033.61,25138.81,28577.47,13470.56,8406.83
1389764.4334,-1251.32,13358.55,35118.2,35161.12,25288.49,28581.29,12878.61,8546.07
1389764.4354,898.03,13425.45,35215.57,35292.49,25323.2,28735.45,13007.83,8585.02
1389764.4374,3795.2,14011.67,35230.35,35333.21,25257.69,28904.35,13611.51,8528.0
1389764.4394,6751.01,14866.26,35176.47,35309.7,25127.32,29051.16,14424.66,8401.16
1389764.4414,8102.23,15584.18,35069.61,35209.85,24987.75,29095.46,15075.83,8265.54
1389764.4434,7405.81,15821.6,34969.0,35099.37,24906.59,29018.6,15250.88,8181.91
1389764.4454,4271.32,15381.29,34917.6,35011.01,24936.82,28815.85,14755.49,8201.22
1389764.4474,464.15,14391.33,34960.89,35012.68,25082.4,28615.29,13767.39,8339.93
1389764.4494,-1338.24,13526.39,35076.77,35114.58,25247.82,28560.12,12994.67,8502.34
1389764.4514,-25.75,13335.18,35198.84,35265.74,25336.94,28683.24,12875.89,8580.49
1389764.4534,2816.11,13801.96,35246.61,35344.65,25306.94,28877.21,13366.18,8562.33
1389764.4554,5841.88,14584.16,35217.91,35340.41,25193.6,29054.07,14129.31,8463.53
1389764.4574,7905.58,15397.22,35116.39,35252.48,25030.28,29126.36,14879.04,8311.32
1389764.4594,7877.3,15804.63,35005.34,35136.85,24916.46,29076.53,15218.78,8202.36
1389764.4614,5563.83,15620.9,34932.71,35038.95,24902.25,28905.44,14968.49,8183.29
1389764.4634,1626.35,14749.0,34939.01,35009.53,25017.07,28660.11,14092.64,8286.91
1389764.4654,-1042.56,13766.72,35039.57,35085.78,25197.51,28558.21,13188.75,8458.66
1389764.4674,-782.3,13308.72,35172.37,35223.63,25327.83,28623.82,12821.87,8578.59
1389764.4694,1854.42,13605.07,35245.18,35327.63,25328.64,28792.53,13171.2,8566.91
1389764.4714,4809.28,14296.77,35235.03,35350.47,25239.42,28950.74,13867.33,8490.23
1389764.4734,7446.43,15157.03,35155.44,35285.86,25082.59,29068.9,14672.71,8357.96
1389764.4754,8084.68,15712.31,35032.18,35163.31,24936.82,29061.37,15146.02,8222.72
1389764.4774,6629.52,15751.7,34931.28,35045.58,24880.7,28940.44,15114.74,8172.47
1389764.4794,2919.39,15072.63,34908.68,34983.69,24964.76,28725.77,14418.84,8249.52
1389764.4814,-419.19,14054.87,34991.65,35031.85,25140.24,28566.03,13461.78,8411.55
1389764.4834,-1254.51,13366.13,35130.93,35166.89,25302.75,28570.37,12868.84,8558.99
1389764.4854,880.67,13443.66,35236.98,35301.5,25352.58,28741.27,13013.98,8608.82
1389764.4874,3779.32,14019.87,35245.47,35344.08,25282.77,28916.93,13609.27,8540.97
1389764.4894,6730.22,14861.73,35194.21,35317.95,25143.24,29058.36,14411.4,8404.69
1389764.4914,8099.84,15570.83,35090.12,35219.05,24998.57,29092.7,15050.6,8262.92
1389764.4934,7421.07,15812.45,34981.68,35100.75,24906.69,29005.24,15217.16,8176.61
1389764.4954,4308.61,15374.52,34923.8,35005.48,24937.3,28809.03,14729.79,8201.17
1389764.4974,490.33,14386.7,34961.13,34997.9,25087.88,28602.65,13775.92,8341.69
1389764.4994,-1352.64,13509.94,35078.39,35107.52,25261.31,28541.62,12991.0,8511.07
1389764.5014,-61.18,13321.54,35203.94,35258.01,25351.38,28666.93,12874.75,8597.09
1389764.5034,2770.09,13780.5,35250.1,35336.07,25320.82,28856.66,13371.8,8565.47
1389764.5054,5799.58,14567.0,35219.63,35335.16,25203.33,29019.17,14136.7,8455.9
1389764.5074,7868.43,15374.71,35116.34,35247.33,25039.96,29096.27,14875.51,8296.92
1389764.5094,7882.26,15795.04,35005.53,35128.93,24924.47,29049.02,15218.07,8180.09
1389764.5114,5586.96,15614.8,34942.3,35036.47,24913.03,28886.94,14976.65,8166.27
1389764.5134,1658.87,14745.62,34943.78,35000.28,25017.41,28661.4,14118.24,8280.04
1389764.5154,-1064.3,13747.84,35034.8,35067.37,25190.45,28543.76,13206.86,8454.8
1389764.5174,-811.1,13291.36,35166.36,35219.01,25320.06,28604.42,12833.88,8572.01
1389764.5194,1790.86,13573.41,35242.28,35329.16,25327.49,28790.53,13172.29,8579.92
1389764.5214,4773.28,14265.78,35230.45,35347.61,25236.56,28966.81,13860.75,8499.86
1389764.5234,7417.39,15130.95,35153.63,35293.3,25088.46,29096.08,14666.51,8357.67
1389764.5254,8116.72,15709.93,35034.71,35178.09,24949.89,29094.99,15172.39,8222.87
1389764.5274,6659.32,15754.27,34941.96,35076.29,24896.15,28962.09,15142.82,8174.85
1389764.5294,2992.11,15087.65,34916.12,34995.99,24970.25,28732.35,14444.88,8251.24
1389764.5314,-403.64,14054.59,34987.98,35028.13,25140.24,28568.89,13471.65,8415.99
1389764.5334,-1246.98,13357.59,35122.45,35155.92,25299.12,28571.66,12868.36,8561.8
1389764.5354,814.87,13412.43,35227.11,35283.81,25346.76,28728.44,12992.34,8600.43
1389764.5374,3744.89,14001.9,35242.13,35333.3,25275.57,28902.2,13611.51,8531.71
1389764.5394,6667.81,14837.08,35182.1,35310.32,25129.51,29042.91,14413.6,8397.25
1389764.5414,8110.91,15557.91,35069.99,35211.9,24980.45,29085.59,15050.7,8254.1
1389764.5434,7424.16,15806.06,34967.81,35094.31,24899.91,29015.45,15207.34,8169.22
1389764.5454,4371.12,15382.1,34910.83,34997.99,24926.62,28828.53,14739.18,8188.77
1389764.5474,521.33,14398.43,34958.41,34999.9,25081.83,28627.11,13785.75,8335.16
1389764.5494,-1307.92,13530.07,35084.49,35106.71,25259.59,28575.76,13002.3,8510.21
1389764.5514,-97.13,13321.97,35212.33,35248.71,25352.77,28696.83,12874.13,8596.61
1389764.5534,2760.03,13772.97,35254.01,35326.53,25314.1,28857.14,13367.46,8557.94
1389764.5554,5751.8,14545.39,35217.19,35334.02,25185.97,28988.56,14116.29,8441.4
1389764.5574,7891.47,15371.9,35121.87,35263.4,25031.62,29077.1,14866.02,8303.5
1389764.5594,7884.46,15787.51,35004.81,35134.7,24915.75,29039.67,15220.45,8199.36
1389764.5614,5638.84,15613.37,34931.0,35036.23,24901.11,28883.51,14986.66,8181.67
1389764.5634,1695.2,14760.16,34937.82,35007.86,25024.08,28668.31,14126.35,8296.44
1389764.5654,-1004.79,13778.78,35047.54,35101.37,25214.2,28562.02,13207.96,8475.83
1389764.5674,-832.61,13297.27,35171.56,35232.98,25334.08,28609.42,12813.57,8594.23
1389764.5694,1767.83,13565.73,35239.03,35326.06,25331.64,28779.32,13142.59,8597.04
1389764.5714,4720.97,14258.77,35231.02,35344.27,25244.05,28940.49,13837.77,8511.02
1389764.5734,7406.09,15124.18,35154.01,35294.35,25093.7,29065.76,14644.77,8369.83
1389764.5754,8115.96,15712.22,35040.34,35180.76,24957.37,29074.15,15158.08,8240.8
1389764.5774,6708.72,15761.0,34946.35,35066.75,24893.53,28963.38,15141.54,8178.85
1389764.5794,3042.65,15104.3,34916.36,35000.61,24963.81,28744.13,14452.41,8233.12
1389764.5814,-359.92,14075.47,34988.93,35039.81,25139.62,28568.18,13471.7,8392.19
1389764.5834,-1261.04,13373.76,35122.06,35166.94,25303.7,28557.45,12858.34,8549.55
1389764.5854,786.21,13416.1,35231.12,35296.97,25357.87,28717.43,12978.84,8598.38
1389764.5874,3714.04,14001.32,35249.76,35345.03,25292.16,28902.68,13589.81,8534.53
1389764.5894,6655.22,14830.64,35188.15,35310.46,25142.58,29046.78,14383.6,8401.2
1389764.5914,8110.19,15559.01,35076.05,35207.66,24987.61,29088.45,15036.3,8260.78
1389764.5934,7443.95,15805.15,34970.67,35092.02,24900.39,29012.4,15213.21,8178.04
1389764.5954,4432.06,15395.31,34913.45,35007.19,24925.04,28818.66,14747.48,8196.26
1389764.5974,554.18,14403.58,34945.78,35010.15,25070.62,28611.38,13786.7,8318.57
1389764.5994,-1326.51,13521.48,35056.98,35107.04,25235.94,28539.23,12994.15,8471.63
1389764.6014,-151.16,13300.56,35183.1,35245.09,25329.07,28647.62,12853.58,8576.35
1389764.6034,2713.82,13753.84,35233.41,35321.96,25302.79,28829.86,13342.76,8559.51
1389764.6054,5689.1,14511.97,35197.21,35311.27,25180.2,28982.07,14086.2,8447.55
1389764.6074,7860.61,15345.62,35104.47,35239.65,25023.13,29072.34,14849.81,8300.35
1389764.6094,7887.89,15772.3,34995.85,35126.36,24911.45,29041.44,15209.96,8196.16
1389764.6114,5683.09,15618.9,34915.17,35020.21,24898.58,28891.85,14993.57,8182.05
1389764.6134,1722.53,14767.31,34926.23,34986.31,25028.04,28674.51,14144.61,8302.26
1389764.6154,-996.21,13779.78,35030.32,35061.32,25208.19,28550.63,13227.04,8472.06
1389764.6174,-885.92,13289.6,35163.22,35205.08,25336.84,28604.99,12826.11,8587.74
1389764.6194,1727.68,13560.2,35238.79,35319.67,25336.79,28781.56,13153.7,8584.45
1389764.6214,4659.89,14235.88,35225.54,35339.22,25238.42,28940.82,13835.38,8498.53
1389764.6234,7389.74,15109.73,35153.77,35296.35,25087.69,29070.0,14655.54,8360.34
1389764.6254,8111.14,15706.11,35048.16,35193.4,24958.99,29081.54,15174.01,8240.27
1389764.6274,6740.24,15759.28,34943.73,35074.57,24890.09,28958.75,15142.11,8167.55
1389764.6294,3056.76,15093.85,34903.82,35002.43,24952.08,28734.83,14433.39,8220.77
1389764.6314,-332.55,14069.08,34972.48,35052.02,25124.79,28568.22,13470.27,8376.12
1389764.6334,-1295.61,13352.49,35103.61,35177.28,25284.82,28563.69,12861.73,8514.36
1389764.6354,771.47,13401.18,35216.14,35299.45,25338.84,28717.57,12987.19,8556.27
1389764.6374,3663.25,13984.25,35243.47,35344.18,25281.24,28895.33,13590.62,8513.36
1389764.6394,6642.15,14821.63,35186.91,35316.42,25141.91,29037.43,14377.07,8405.54
1389764.6414,8080.05,15535.07,35066.28,35198.74,24982.65,29068.76,15003.35,8268.55
1389764.6434,7486.73,15799.1,34965.33,35076.43,24895.96,29003.43,15193.08,8196.02
1389764.6454,4454.04,15394.98,34908.54,34983.31,24921.42,28815.61,14739.32,8219.48
1389764.6474,611.93,14413.26,34941.87,34978.2,25062.75,28608.47,13786.32,8350.61
1389764.6494,-1323.27,13529.49,35057.17,35082.73,25239.9,28545.76,12997.82,8507.59
1389764.6514,-151.49,13307.14,35188.06,35236.98,25340.61,28668.22,12864.5,8596.56
1389764.6534,2678.11,13757.04,35241.51,35323.43,25307.09,28862.86,13353.54,8570.39
1389764.6554,5697.92,14527.94,35211.47,35324.72,25187.64,29023.46,14108.9,8454.8
1389764.6574,7872.15,15356.69,35118.73,35255.44,25031.57,29098.04,14875.37,8305.03
1389764.6594,7930.14,15784.17,35005.48,35146.1,24922.99,29053.5,15229.23,8194.78
1389764.6614,5733.82,15631.39,34924.99,35042.43,24912.55,28894.95,14994.24,8179.43
1389764.6634,1790.91,14774.28,34925.46,34999.28,25021.22,28664.64,14126.4,8283.43
1389764.6654,-983.91,13786.7,35025.22,35069.71,25197.46,28537.9,13216.69,8457.47
1389764.6674,-885.58,13294.98,35158.69,35212.14,25324.59,28589.44,12812.47,8587.74
1389764.6694,1699.02,13562.92,35236.41,35318.09,25327.4,28774.65,13143.97,8596.47
1389764.6714,4637.62,14233.21,35224.2,35340.17,25237.04,28939.39,13820.98,8508.16
1389764.6734,7349.54,15098.24,35145.81,35296.35,25083.59,29058.84,14622.83,8350.61
1389764.6754,8109.05,15690.42,35031.85,35196.55,24945.69,29061.13,15137.39,8209.13
1389764.6774,6776.48,15777.83,34946.87,35103.09,24893.57,28957.89,15150.55,8160.4
1389764.6794,3132.39,15133.62,34921.36,35026.32,24961.57,28742.27,14479.16,8230.35
1389764.6814,-301.22,14107.42,34987.69,35040.1,25123.03,28572.61,13501.31,8372.5
1389764.6834,-1294.18,13382.39,35117.01,35157.11,25285.44,28571.18,12868.6,8530.81
1389764.6854,737.62,13425.54,35230.35,35287.34,25345.76,28738.88,12979.41,8606.63
1389764.6874,3633.55,13995.7,35256.29,35330.59,25287.2,28925.95,13577.7,8561.8
1389764.6894,6607.77,14830.07,35200.55,35304.26,25141.05,29067.71,14374.4,8428.96
1389764.6914,8087.3,15550.42,35086.35,35208.75,24987.13,29093.89,15023.42,8277.13
1389764.6934,7511.09,15817.98,34978.44,35095.74,24893.1,28993.18,15219.36,8177.09
1389764.6954,4512.5,15423.11,34927.32,35013.97,24926.19,28818.04,14775.95,8193.35
1389764.6974,657.75,14449.41,34957.46,35007.05,25074.58,28607.61,13826.51,8337.31
1389764.6994,-1320.46,13547.04,35063.22,35096.03,25243.48,28534.7,13016.51,8510.26
1389764.7014,-178.19,13314.01,35178.95,35231.74,25331.36,28644.04,12864.16,8602.43
1389764.7034,2627.37,13745.83,35225.73,35308.51,25302.79,28821.66,13338.62,8574.3
1389764.7054,5649.57,14517.21,35202.89,35313.66,25196.79,28991.51,14090.49,8465.29
1389764.7074,7839.2,15349.1,35117.96,35248.86,25051.69,29098.56,14859.54,8319.9
1389764.7094,7963.85,15806.34,35013.16,35147.1,24941.59,29078.53,15241.96,8217.48
1389764.7114,5789.33,15664.77,34938.05,35054.12,24921.37,28932.77,15042.5,8199.22
1389764.7134,1866.25,14826.44,34937.2,35016.73,25029.09,28701.12,14203.45,8300.07
1389764.7154,-956.68,13827.47,35040.34,35095.41,25212.2,28581.43,13285.07,8471.49
1389764.7174,-850.01,13343.86,35183.86,35248.05,25350.57,28641.23,12892.15,8602.91
1389764.7194,1699.35,13599.45,35264.93,35355.29,25362.54,28820.66,13201.67,8610.73
1389764.7214,4661.94,14275.12,35257.82,35379.27,25270.04,28989.37,13866.86,8518.84
1389764.7234,7351.83,15129.62,35187.53,35341.46,25113.16,29110.86,14662.41,8367.59
1389764.7254,8148.67,15717.89,35063.18,35218.15,24958.61,29092.74,15160.28,8225.01
1389764.7274,6810.0,15789.46,34970.0,35094.17,24893.76,28979.26,15151.31,8179.95
1389764.7294,3199.77,15156.7,34939.96,35012.92,24961.05,28762.2,14493.47,8249.9
1389764.7314,-274.75,14129.12,35013.39,35051.25,25138.19,28593.26,13523.63,8418.04
1389764.7334,-1263.71,13400.17,35132.22,35174.37,25299.7,28577.33,12890.39,8566.71
1389764.7354,680.54,13408.71,35230.35,35298.26,25349.33,28719.0,12970.97,8602.91
1389764.7374,3599.45,13969.47,35245.71,35336.16,25284.15,28889.09,13556.58,8539.25
1389764.7394,6548.26,14800.93,35188.58,35311.08,25147.39,29032.42,14355.33,8402.01
1389764.7414,8097.41,15550.52,35087.07,35232.88,25001.43,29092.03,15028.53,8258.34
1389764.7434,7516.91,15828.95,34984.4,35139.42,24914.98,29023.98,15229.89,8174.66
1389764.7454,4584.22,15441.56,34918.93,35053.92,24932.67,28827.77,14794.92,8209.52
1389764.7474,685.12,14458.32,34946.87,35034.95,25072.29,28618.05,13836.91,8355.33
1389764.7494,-1293.04,13558.25,35061.46,35123.64,25246.0,28545.05,13013.89,8520.6
1389764.7514,-223.02,13310.0,35190.97,35259.2,25339.89,28653.29,12851.91,8611.58
1389764.7534,2613.78,13746.55,35248.71,35335.16,25313.76,28844.5,13333.61,8589.84
1389764.7554,5620.19,14519.84,35225.2,35336.55,25206.47,29022.41,14106.47,8488.61
1389764.7574,7849.55,15345.96,35126.36,35253.34,25041.25,29113.34,14871.22,8333.16
1389764.7594,7951.36,15788.37,35007.62,35134.13,24920.66,29080.35,15238.05,8223.63
1389764.7614,5819.89,15646.36,34925.18,35036.76,24900.11,28914.69,15014.36,8205.32
1389764.7634,1882.36,14806.61,34918.46,34990.27,25010.21,28673.75,14160.73,8304.88
1389764.7654,-937.32,13810.06,35027.41,35071.76,25203.28,28553.06,13243.1,8473.83
1389764.7674,-921.82,13301.47,35162.12,35210.76,25336.65,28595.26,12829.16,8578.83
1389764.7694,1625.11,13544.94,35240.65,35325.25,25343.04,28772.64,13136.58,8585.93
1389764.7714,4572.68,14220.91,35239.37,35354.52,25255.73,28943.11,13813.21,8514.07
1389764.7734,7316.02,15083.74,35172.04,35300.21,25106.86,29072.96,14621.88,8382.99
1389764.7754,8124.78,15687.47,35051.45,35170.85,24958.76,29078.44,15146.88,8244.94
1389764.7774,6829.98,15779.59,34960.7,35072.62,24901.06,28976.83,15167.43,8190.25
1389764.7794,3250.79,15171.34,34934.24,35016.68,24972.25,28760.58,14522.79,8254.48
1389764.7814,-240.18,14137.89,34993.56,35049.35,25135.9,28583.24,13543.37,8401.59
1389764.7834,-1296.33,13398.03,35116.96,35174.04,25291.49,28566.6,12902.55,8541.01
1389764.7854,647.74,13395.22,35223.68,35313.47,25344.37,28715.71,12973.74,8591.75
1389764.7874,3571.13,13960.55,35242.47,35368.49,25282.82,28893.52,13561.06,8539.34
1389764.7894,6521.42,14783.77,35185.25,35337.55,25147.01,29029.9,14348.32,8415.75
1389764.7914,8079.96,15529.78,35076.05,35231.17,24995.52,29072.67,15010.84,8275.08
1389764.7934,7527.26,15805.29,34965.57,35104.09,24898.25,29008.34,15218.88,8178.62
1389764.7954,4614.02,15433.22,34901.29,35001.52,24907.59,28824.67,14789.34,8189.58
1389764.7974,689.89,14453.08,34930.42,34989.89,25049.93,28619.48,13833.05,8333.02
1389764.7994,-1307.39,13557.72,35053.92,35091.69,25229.89,28555.3,13021.76,8503.63
1389764.8014,-271.42,13299.13,35185.72,35245.14,25333.31,28649.67,12848.14,8589.17
1389764.8034,2582.98,13741.35,35248.24,35338.22,25315.43,28834.01,13333.13,8554.27
1389764.8054,5570.84,14504.96,35227.83,35351.33,25205.71,29002.48,14088.78,8457.04
1389764.8074,7838.01,15346.24,35134.22,35284.0,25045.11,29100.52,14856.72,8319.43
1389764.8094,7939.77,15787.75,35012.77,35151.06,24918.37,29058.89,15220.64,8198.41
1389764.8114,5874.73,15667.39,34937.53,35045.06,24897.67,28904.11,15034.63,8177.62
1389764.8134,1923.9,14831.54,34939.77,34996.23,25005.53,28672.51,14204.79,8283.95
1389764.8154,-910.43,13828.42,35026.98,35050.3,25180.3,28542.81,13282.16,8454.37
1389764.8174,-965.69,13298.7,35154.87,35180.48,25312.05,28584.96,12842.75,8581.93
1389764.8194,1598.69,13540.41,35238.84,35295.11,25324.97,28765.11,13135.91,8594.56
1389764.8214,4531.57,14208.94,35233.6,35324.72,25238.9,28940.78,13796.57,8514.45
1389764.8234,7300.09,15078.59,35161.5,35296.87,25083.54,29075.29,14619.21,8364.49
1389764.8254,8106.95,15681.94,35043.48,35197.21,24940.64,29079.82,15146.21,8216.62
1389764.8274,6888.06,15778.64,34944.11,35088.73,24876.93,28965.19,15160.71,8150.29
1389764.8294,3274.49,15157.32,34907.15,35007.77,24946.26,28747.47,14497.95,8216.86
1389764.8314,-198.08,14131.93,34973.91,35034.95,25120.31,28559.83,13520.96,8379.7
1389764.8334,-1307.49,13395.88,35112.48,35157.64,25288.25,28544.38,12878.8,8545.97
1389764.8354,635.72,13399.79,35228.16,35291.63,25345.38,28704.22,12960.86,8611.58
1389764.8374,3521.25,13949.83,35244.76,35329.06,25278.0,28880.89,13534.5,8556.18
1389764.8394,6526.09,14784.15,35196.59,35311.42,25143.53,29037.05,14340.55,8427.53
1389764.8414,8084.54,15534.59,35090.98,35225.3,24996.57,29094.79,15020.8,8278.85
1389764.8434,7575.04,15818.41,34977.68,35108.76,24898.34,29023.7,15235.33,8185.01
1389764.8454,4661.51,15449.72,34917.5,35021.93,24915.27,28829.91,14813.33,8191.25
1389764.8474,775.05,14478.97,34952.45,35018.35,25055.94,28621.2,13866.0,8323.1
1389764.8494,-1290.89,13570.21,35065.7,35105.61,25229.03,28546.0,13044.26,8491.42
1389764.8514,-279.67,13301.76,35191.92,35253.1,25325.92,28653.29,12861.44,8571.1
1389764.8534,2531.67,13725.0,35243.94,35343.27,25297.07,28834.54,13325.45,8539.73
1389764.8554,5562.45,14497.42,35233.17,35360.15,25197.89,29007.49,14078.86,8465.1
1389764.8574,7836.58,15345.62,35145.24,35293.92,25042.44,29107.14,14858.49,8337.07
1389764.8594,7990.03,15794.57,35023.65,35164.98,24921.56,29071.53,15231.13,8225.73
1389764.8614,5921.75,15668.92,34933.71,35044.01,24896.34,28916.6,15035.77,8193.83
1389764.8634,1993.23,14837.46,34919.93,34987.5,25000.53,28684.57,14201.12,8281.85
1389764.8654,-893.07,13841.77,35014.63,35056.45,25177.86,28555.44,13276.05,8447.6
1389764.8674,-957.54,13312.96,35154.87,35206.42,25321.44,28604.08,12833.74,8585.02
1389764.8694,1579.86,13557.58,35249.14,35336.07,25342.23,28790.67,13129.28,8602.05
1389764.8714,4520.85,14220.14,35248.14,35361.2,25252.54,28960.71,13796.52,8511.59
1389764.8734,7288.5,15080.41,35175.9,35309.56,25099.19,29087.93,14613.53,8365.54
1389764.8754,8136.94,15685.75,35056.83,35192.97,24956.85,29091.98,15151.98,8233.45
1389764.8774,6933.31,15798.38,34959.37,35082.39,24892.24,28987.55,15194.32,8176.23
1389764.8794,3356.93,15186.65,34924.08,35009.82,24953.75,28768.11,14536.57,8234.64
1389764.8814,-151.21,14165.93,34995.13,35044.44,25128.65,28587.25,13559.01,8393.0
1389764.8834,-1299.95,13409.81,35127.31,35167.89,25299.27,28567.89,12905.31,8554.51
1389764.8854,614.12,13405.47,35233.88,35301.88,25354.82,28723.62,12971.64,8615.11
1389764.8874,3504.18,13959.6,35260.16,35354.14,25294.93,28908.11,13554.77,8563.52
1389764.8894,6507.16,14791.92,35212.76,35338.88,25157.5,29055.98,14353.94,8430.96
1389764.8914,8089.45,15540.65,35109.71,35252.1,25004.58,29105.0,15029.1,8275.8
1389764.8934,7629.82,15852.6,35010.44,35148.77,24922.09,29038.91,15256.6,8192.3
1389764.8954,4730.51,15474.89,34936.81,35049.82,24926.33,28847.51,14820.91,8192.68
1389764.8974,833.85,14504.82,34955.7,35042.58,25052.79,28625.06,13869.43,8318.81
1389764.8994,-1292.04,13580.51,35064.22,35140.57,25223.12,28542.09,13040.69,8480.79
1389764.9014,-301.69,13307.86,35187.63,35272.46,25324.01,28643.09,12849.43,8580.11
1389764.9034,2494.57,13725.43,35248.09,35344.41,25312.33,28834.49,13308.43,8577.4
1389764.9054,5527.54,14493.37,35233.22,35339.65,25207.33,28999.62,14058.97,8472.49
1389764.9074,7793.86,15326.88,35142.33,35267.74,25049.78,29092.74,14830.78,8317.28
1389764.9094,8002.71,15797.09,35026.27,35154.63,24933.06,29063.42,15228.8,8213.85
1389764.9114,5943.97,15676.02,34943.06,35038.9,24901.73,28918.65,15049.98,8190.01
1389764.9134,2047.11,14863.4,34933.48,34989.79,25002.39,28702.41,14230.35,8285.33
1389764.9154,-892.11,13854.36,35028.51,35057.93,25186.02,28575.66,13288.93,8458.76
1389764.9174,-971.79,13321.07,35161.31,35201.17,25327.64,28626.59,12820.67,8590.17
1389764.9194,1515.05,13543.66,35243.47,35318.71,25339.42,28807.5,13102.34,8596.47
1389764.9214,4485.42,14206.55,35240.65,35357.29,25251.39,28949.41,13780.07,8501.1
1389764.9234,7249.26,15073.11,35174.33,35321.91,25109.25,29067.33,14602.38,8357.67
1389764.9254,8163.93,15697.77,35056.4,35204.56,24967.67,29075.77,15147.16,8231.97
1389764.9274,6944.04,15804.91,34958.32,35087.64,24898.63,28976.78,15181.73,8181.05
1389764.9294,3416.63,15209.15,34924.18,35018.78,24959.47,28771.5,14547.68,8245.14
1389764.9314,-145.82,14181.66,34984.5,35047.58,25117.07,28593.59,13567.16,8393.48
1389764.9334,-1298.81,13427.35,35114.2,35173.52,25275.38,28574.37,12904.26,8545.92
1389764.9354,549.75,13408.33,35228.3,35307.32,25334.79,28719.67,12956.57,8604.91
1389764.9374,3471.71,13958.03,35249.29,35351.95,25275.28,28893.0,13531.02,8552.36
1389764.9394,6454.61,14782.62,35194.83,35324.63,25143.1,29036.95,14324.81,8423.9
1389764.9414,8117.15,15546.94,35091.36,35243.23,24990.47,29100.23,15015.41,8260.44
1389764.9434,7629.59,15843.3,34982.88,35130.41,24894.29,29030.71,15233.42,8170.32
1389764.9454,4795.27,15493.73,34926.66,35041.05,24917.18,28847.6,14822.77,8202.41
1389764.9474,860.64,14535.81,34961.99,35033.8,25061.51,28643.95,13889.93,8344.89
1389764.9494,-1261.9,13613.27,35069.66,35120.11,25233.65,28562.69,13060.0,8507.73
1389764.9514,-340.6,13324.69,35197.93,35255.25,25338.32,28665.69,12860.49,8603.29
1389764.9534,2479.65,13733.1,35253.2,35339.79,25313.95,28856.95,13314.06,8578.02
1389764.9554,5467.56,14477.4,35219.15,35336.83,25196.75,29009.44,14040.85,8467.82
1389764.9574,7796.34,15315.73,35129.17,35263.59,25042.49,29093.17,14814.43,8316.95
1389764.9594,7993.37,15784.31,35008.24,35147.34,24923.85,29051.74,15210.06,8200.17
1389764.9614,5982.59,15668.78,34915.59,35037.09,24890.57,28897.15,15033.63,8175.9
1389764.9634,2062.89,14856.91,34908.73,34997.56,24990.23,28677.09,14211.75,8272.65
1389764.9654,-877.81,13845.49,35005.0,35070.66,25166.42,28551.06,13276.53,8433.15
1389764.9674,-1015.71,13304.47,35142.24,35212.19,25301.27,28601.17,12828.88,8556.99
1389764.9694,1480.44,13527.63,35239.13,35330.01,25327.73,28790.76,13118.55,8592.23
1389764.9714,4446.08,14204.46,35249.76,35370.93,25259.4,28971.58,13792.42,8532.72
1389764.9734,7249.02,15079.4,35190.16,35340.98,25118.16,29107.53,14612.77,8394.19
1389764.9754,8191.16,15713.12,35074.86,35227.83,24975.54,29120.16,15174.87,8250.0
1389764.9774,6976.99,15808.2,34956.79,35100.99,24896.62,29003.05,15206.62,8180.09
1389764.9794,3469.75,15217.35,34914.74,35015.73,24945.41,28778.13,14572.86,8242.56
1389764.9814,-110.96,14184.91,34981.54,35044.01,25110.15,28597.5,13579.51,8405.88
1389764.9834,-1308.97,13424.83,35117.2,35176.42,25277.52,28585.63,12900.02,8563.47
1389764.9854,500.82,13381.53,35221.53,35307.32,25332.79,28729.25,12939.5,8607.67
1389764.9874,3424.02,13934.33,35243.42,35358.96,25277.19,28906.63,13520.67,8559.04
1389764.9894,6418.52,14761.21,35199.03,35340.84,25152.64,29052.64,14322.9,8447.08
1389764.9914,8095.03,15517.14,35081.58,35231.55,24990.51,29080.63,15001.87,8285.09
1389764.9934,7624.91,15813.4,34967.71,35106.33,24890.52,29007.2,15232.14,8187.44
1389764.9954,4820.01,15480.42,34910.68,35013.73,24899.49,28825.0,14838.36,8199.31
1389764.9974,867.75,14515.45,34945.92,35000.47,25041.15,28614.48,13884.4,8328.87
1389764.9994,-1272.11,13596.87,35059.17,35098.75,25225.12,28547.15,13051.42,8497.14
1389765.0014,-395.06,13295.56,35189.35,35253.05,25337.94,28655.2,12835.89,8593.85
1389765.0034,2441.36,13709.83,35250.57,35349.99,25319.48,28836.73,13292.5,8579.35
1389765.0054,5430.46,14454.51,35222.96,35349.52,25212.1,28993.56,14036.13,8479.26
1389765.0074,7798.86,15306.9,35134.37,35276.89,25056.7,29095.56,14833.02,8332.35
1389765.0094,8022.74,15781.36,35024.22,35162.12,24939.54,29073.34,15235.38,8220.58
1389765.0114,6084.25,15695.86,34944.3,35067.37,24910.93,28932.57,15074.83,8195.16
1389765.0134,2135.9,14875.75,34923.94,35010.82,25003.01,28706.94,14236.88,8266.4
1389765.0154,-816.73,13863.37,35005.53,35078.72,25171.09,28581.19,13302.95,8415.32
1389765.0174,-1032.07,13302.95,35139.61,35219.2,25312.14,28621.1,12832.88,8562.14
1389765.0194,1453.21,13512.33,35230.07,35327.15,25335.31,28799.25,13104.34,8603.0
1389765.0214,4374.41,14156.15,35235.79,35343.99,25250.63,28957.04,13756.94,8536.34
1389765.0234,7207.2,15023.38,35170.13,35293.68,25093.99,29069.67,14569.19,8391.33
1389765.0254,8152.92,15663.34,35052.92,35195.74,24948.65,29087.36,15130.66,8250.14
1389765.0274,7023.48,15788.46,34944.54,35077.77,24871.88,28989.7,15180.3,8181.14
1389765.0294,3485.73,15201.86,34897.76,34994.51,24926.28,28776.55,14559.89,8229.16
1389765.0314,-76.91,14182.62,34962.85,35043.86,25105.91,28602.22,13588.86,8379.51
1389765.0334,-1355.6,13408.47,35095.03,35168.75,25284.39,28577.86,12904.31,8552.74
1389765.0354,467.73,13363.41,35205.8,35299.78,25349.52,28721.72,12936.55,8614.78
1389765.0374,3355.79,13898.76,35234.12,35341.31,25293.16,28878.41,13496.78,8556.7
1389765.0394,6374.5,14719.96,35187.49,35311.66,25152.4,29021.46,14285.09,8427.24
1389765.0414,8063.51,15489.63,35081.3,35208.37,24997.38,29092.84,14985.09,8277.56
1389765.0434,7687.14,15814.93,34975.91,35096.79,24903.49,29039.43,15235.24,8187.1
1389765.0454,4884.34,15496.07,34919.08,35008.53,24919.47,28870.54,14860.2,8213.71
1389765.0474,957.39,14549.02,34956.75,35007.62,25065.38,28665.21,13934.52,8351.8
1389765.0494,-1258.71,13613.89,35063.7,35102.18,25238.95,28574.66,13088.18,8506.54
1389765.0514,-412.99,13285.59,35178.38,35235.22,25334.12,28653.77,12845.71,8594.51
1389765.0534,2382.42,13684.32,35233.41,35323.67,25313.76,28835.25,13293.41,8580.73
1389765.0554,5377.53,14425.14,35209.47,35330.97,25201.8,28988.32,14021.11,8482.98
1389765.0574,7753.61,15273.95,35115.44,35259.68,25036.77,29080.39,14795.97,8330.39
1389765.0594,8029.18,15754.61,34996.32,35131.27,24907.69,29055.93,15207.39,8207.08
1389765.0614,6094.5,15682.13,34916.6,35034.8,24882.75,28922.28,15065.48,8171.89
1389765.0634,2175.0,14883.81,34912.02,34993.46,24986.89,28710.8,14266.64,8264.83
1389765.0654,-825.12,13872.58,35001.09,35062.41,25163.42,28579.14,13329.7,8431.72
1389765.0674,-1062.87,13297.27,35128.74,35198.5,25299.7,28610.9,12849.67,8566.24
1389765.0694,1398.52,13500.93,35221.44,35317.28,25317.77,28787.57,13106.4,8588.65
1389765.0714,4337.5,14150.43,35230.35,35344.51,25244.86,28960.37,13750.75,8519.08
1389765.0734,7178.26,15028.05,35171.51,35313.18,25099.23,29100.56,14584.11,8377.17
1389765.0754,8153.49,15655.71,35055.36,35186.25,24947.55,29094.75,15129.85,8231.31
1389765.0774,7065.06,15795.28,34958.41,35085.78,24878.41,28986.6,15189.22,8157.16
1389765.0794,3558.83,15216.5,34917.69,35012.06,24939.87,28770.12,14576.82,8218.34
1389765.0814,-45.25,14197.4,34979.25,35031.08,25109.15,28585.44,13617.18,8392.38
1389765.0834,-1358.99,13405.28,35106.33,35137.37,25276.66,28553.16,12922.0,8560.71
1389765.0854,437.21,13359.36,35222.82,35274.51,25344.57,28688.96,12934.02,8622.22
1389765.0874,3312.4,13891.13,35246.61,35330.2,25286.92,28869.01,13477.99,8569.38
1389765.0894,6344.51,14721.78,35198.55,35311.56,25154.16,29022.89,14268.83,8440.54
1389765.0914,8062.46,15493.63,35097.27,35228.45,25004.29,29082.25,14974.07,8293.01
1389765.0934,7713.7,15829.61,34994.75,35126.88,24910.88,29016.12,15229.89,8203.6
1389765.0954,4925.44,15500.45,34920.36,35028.51,24919.7,28824.76,14844.47,8208.56
1389765.0974,986.91,14553.83,34939.72,35008.01,25051.55,28608.75,13911.92,8329.92
1389765.0994,-1277.88,13609.41,35051.4,35106.71,25225.59,28530.31,13061.19,8481.46
1389765.1014,-435.21,13289.74,35173.94,35257.53,25321.87,28620.53,12825.68,8565.09
1389765.1034,2327.35,13673.21,35233.64,35345.75,25304.85,28803.16,13256.93,8551.07
1389765.1054,5362.23,14428.24,35218.43,35358.24,25205.42,28972.15,13999.7,8466.91
1389765.1074,7734.54,15276.48,35130.89,35289.2,25048.26,29078.06,14785.53,8333.35
1389765.1094,8060.74,15777.83,35022.12,35168.8,24925.66,29057.55,15206.96,8223.96
1389765.1114,6127.64,15703.54,34942.3,35067.13,24889.04,28920.32,15064.62,8188.87
1389765.1134,2249.38,14913.66,34929.9,35014.92,24984.46,28672.03,14257.91,8276.32
1389765.1154,-813.01,13885.07,35013.97,35059.98,25158.5,28518.73,13296.75,8446.27
1389765.1174,-1065.68,13308.57,35142.62,35193.54,25297.69,28556.54,12812.19,8583.69
1389765.1194,1350.26,13501.31,35238.99,35321.34,25329.74,28740.31,13069.58,8616.26
1389765.1214,4329.82,14161.54,35249.24,35362.25,25259.5,28925.57,13743.97,8545.73
1389765.1234,7147.12,15022.09,35183.34,35318.28,25116.35,29060.27,14557.55,8401.73
1389765.1254,8190.73,15677.93,35072.33,35209.8,24974.68,29081.78,15132.91,8260.54
1389765.1274,7080.75,15819.46,34977.68,35101.08,24904.06,28988.51,15207.01,8192.35
1389765.1294,3643.7,15260.65,34944.54,35029.37,24960.28,28788.71,14609.91,8250.52
1389765.1314,-11.4,14233.59,35008.39,35049.92,25128.65,28616.91,13625.91,8410.03
1389765.1334,-1323.51,13442.71,35127.21,35173.85,25294.26,28588.73,12923.67,8559.47
1389765.1354,387.72,13368.89,35228.21,35313.42,25350.29,28704.07,12922.1,8619.93
1389765.1374,3307.15,13900.57,35254.91,35375.89,25291.16,28867.06,13488.53,8567.72
1389765.1395,6311.47,14730.03,35216.76,35365.35,25169.52,29020.27,14290.62,8448.27
1389765.1415,8082.39,15509.13,35110.62,35271.79,25019.27,29084.92,14995.05,8300.35
1389765.1435,7717.13,15833.81,34995.51,35141.23,24917.51,29019.07,15245.87,8197.26
1389765.1455,4991.29,15518.86,34928.76,35042.05,24924.81,28844.22,14876.99,8189.39
1389765.1475,1020.38,14571.24,34950.74,35020.16,25057.75,28637.46,13945.63,8317.38
1389765.1495,-1238.78,13624.86,35060.93,35104.33,25229.27,28553.25,13090.76,8499.34
1389765.1515,-465.15,13294.6,35186.82,35242.7,25329.59,28638.37,12849.14,8614.45
1389765.1535,2326.87,13681.08,35255.87,35335.69,25321.44,28820.76,13273.1,8612.25
1389765.1555,5325.99,14430.1,35245.71,35360.39,25229.65,28998.09,14009.24,8523.04
1389765.1575,7745.46,15274.53,35152.77,35298.45,25070.53,29101.04,14794.4,8363.34
1389765.1595,8055.5,15770.58,35029.56,35178.0,24938.87,29069.0,15218.5,8225.25
1389765.1615,6186.44,15704.4,34943.87,35070.47,24902.92,28915.22,15084.17,8179.47
1389765.1635,2303.51,14931.73,34938.86,35016.68,25004.82,28699.12,14300.25,8271.6
1389765.1655,-764.32,13908.67,35026.79,35077.53,25181.77,28569.42,13358.26,8427.81
1389765.1675,-1069.36,13330.75,35158.78,35220.1,25318.43,28608.28,12871.65,8566.38
1389765.1695,1338.29,13505.37,35247.38,35344.03,25336.6,28776.36,13105.35,8603.34
1389765.1715,4288.86,14147.24,35244.42,35369.83,25250.49,28937.39,13729.53,8536.86
1389765.1735,7104.3,15001.92,35175.8,35324.72,25103.95,29067.62,14537.86,8402.25
1389765.1755,8166.03,15659.48,35062.51,35207.66,24960.95,29083.97,15125.32,8268.45
1389765.1775,7091.38,15804.48,34964.37,35097.27,24895.96,28983.21,15193.61,8202.51
1389765.1795,3691.48,15254.02,34920.12,35020.07,24946.98,28771.59,14597.08,8242.66
1389765.1815,27.47,14229.06,34972.39,35041.86,25104.29,28585.77,13619.85,8383.37
1389765.1835,-1340.68,13436.84,35098.99,35165.98,25266.89,28555.83,12920.1,8540.25
1389765.1855,356.39,13361.12,35216.1,35301.69,25336.98,28691.3,12924.01,8615.92
1389765.1875,3278.07,13895.94,35248.71,35361.91,25292.45,28867.87,13483.24,8574.53
1389765.1895,6263.11,14703.32,35204.56,35338.84,25165.51,29019.26,14265.97,8453.04
1389765.1915,8061.12,15489.01,35103.37,35247.62,25012.35,29092.6,14983.18,8304.02
1389765.1935,7715.66,15821.22,34995.94,35133.18,24913.74,29044.77,15246.58,8202.89
1389765.1955,5049.28,15520.86,34925.56,35048.16,24912.98,28864.34,14889.39,8189.97
1389765.1975,1086.52,14573.15,34944.11,35025.31,25042.44,28643.52,13959.74,8302.64
1389765.1995,-1199.91,13637.31,35058.88,35116.39,25225.17,28550.06,13103.3,8476.74
1389765.2015,-496.58,13290.41,35190.87,35258.73,25342.04,28633.31,12843.71,8600.47
1389765.2035,2305.41,13674.88,35264.02,35351.52,25328.59,28816.42,13269.66,8604.86
1389765.2055,5275.73,14407.11,35246.33,35357.91,25227.36,28985.93,13998.94,8507.16
1389765.2075,7718.37,15261.18,35150.06,35292.11,25071.05,29092.41,14786.15,8358.53
1389765.2095,8035.8,15749.36,35020.21,35168.32,24940.59,29068.0,15201.09,8228.21
1389765.2115,6243.52,15699.48,34929.28,35063.8,24897.15,28932.91,15090.9,8185.72
1389765.2135,2344.23,14929.2,34917.98,35011.3,24991.9,28703.6,14306.26,8274.94
1389765.2155,-708.53,13917.54,35010.15,35081.44,25166.71,28560.4,13349.15,8446.74
1389765.2175,-1093.2,13318.11,35142.62,35215.57,25311.14,28589.16,12843.56,8590.89
1389765.2195,1323.37,13494.87,35238.79,35340.74,25338.27,28768.73,13087.23,8616.21
1389765.2215,4242.99,14136.36,35252.29,35372.4,25268.13,28949.6,13740.02,8547.59
1389765.2235,7112.41,15002.11,35194.31,35334.78,25124.74,29095.08,14559.08,8409.93
1389765.2255,8152.2,15649.99,35077.39,35221.63,24976.07,29107.19,15131.67,8255.39
1389765.2275,7156.18,15799.24,34967.9,35103.33,24899.77,28995.42,15211.25,8180.43
1389765.2295,3720.71,15249.78,34917.64,35017.45,24945.79,28773.03,14618.78,8229.83
1389765.2315,74.91,14233.11,34972.58,35028.08,25105.86,28574.99,13637.26,8384.32
1389765.2335,-1346.92,13442.09,35103.95,35153.82,25277.86,28552.11,12936.31,8549.17
1389765.2355,342.18,13364.75,35220.2,35301.4,25348.95,28699.69,12936.31,8614.59
1389765.2375,3209.21,13873.96,35241.13,35354.28,25290.02,28873.16,13479.28,8545.54
1389765.2395,6229.83,14679.05,35193.02,35330.4,25157.5,29033.33,14258.58,8420.13
1389765.2415,8019.11,15460.92,35091.31,35228.3,25003.53,29102.66,14971.26,8290.34
1389765.2435,7730.15,15797.52,34977.77,35107.66,24900.25,29018.93,15239.43,8201.55
1389765.2455,5070.11,15513.23,34914.35,35014.06,24906.26,28825.86,14889.81,8207.04
1389765.2475,1131.2,14584.92,34941.39,35001.28,25038.82,28623.39,13967.28,8335.59
1389765.2495,-1211.26,13637.97,35051.64,35087.68,25212.91,28526.74,13101.96,8499.58
1389765.2515,-517.42,13285.59,35182.72,35236.32,25328.69,28614.91,12842.7,8606.48
1389765.2535,2251.53,13666.54,35246.28,35339.17,25325.25,28812.32,13272.91,8600.76
1389765.2555,5233.57,14399.43,35228.73,35356.34,25228.69,28982.36,14003.56,8507.06
1389765.2575,7685.85,15254.12,35139.33,35291.96,25073.01,29084.4,14801.17,8354.09
1389765.2595,8055.88,15753.41,35021.45,35172.9,24940.06,29059.37,15214.87,8223.2
1389765.2615,6274.51,15714.5,34942.73,35069.85,24900.2,28928.95,15080.41,8183.29
1389765.2635,2415.09,14948.51,34928.14,35011.1,24989.51,28711.04,14295.63,8266.88
1389765.2655,-686.41,13932.66,35009.15,35067.51,25160.27,28569.8,13354.97,8429.72
1389765.2675,-1107.88,13326.07,35144.52,35213.05,25310.33,28591.92,12844.33,8581.35
1389765.2695,1258.56,13487.25,35237.84,35327.2,25337.17,28756.38,13067.01,8608.87
1389765.2715,4181.67,14116.1,35244.28,35351.66,25263.84,28931.53,13707.69,8533.57
1389765.2735,7054.47,14975.98,35175.23,35303.64,25115.59,29067.28,14524.08,8389.38
1389765.2755,8143.38,15633.44,35060.79,35194.69,24972.39,29086.88,15109.45,8253.86
1389765.2775,7159.09,15791.94,34949.93,35074.67,24893.53,28980.78,15197.71,8177.0
1389765.2795,3768.87,15248.78,34890.8,34986.21,24935.68,28765.25,14615.35,8211.76
1389765.2815,100.42,14241.03,34947.88,35010.29,25094.42,28583.39,13648.46,8362.58
1389765.2835,-1370.81,13422.92,35074.67,35127.5,25265.41,28539.37,12920.19,8527.23
1389765.2855,289.2,13345.29,35206.37,35276.8,25349.62,28677.18,12905.84,8606.77
1389765.2875,3171.97,13870.77,35252.29,35351.47,25314.38,28873.45,13467.79,8557.13
1389765.2895,6209.95,14686.87,35212.66,35345.42,25186.3,29030.04,14249.61,8418.08
1389765.2915,8017.92,15459.87,35104.23,35246.19,25020.41,29091.08,14955.47,8264.83
1389765.2935,7762.34,15808.87,34987.45,35122.11,24907.16,29038.39,15241.05,8171.13
1389765.2955,5124.95,15524.2,34916.45,35026.84,24906.26,28864.34,14902.5,8189.68
1389765.2975,1202.39,14612.82,34941.01,35019.45,25041.77,28657.11,14001.66,8328.96
1389765.2995,-1196.96,13660.91,35057.98,35112.43,25231.75,28573.09,13138.11,8509.45
1389765.3015,-529.62,13296.8,35185.06,35255.53,25346.09,28642.9,12847.52,8620.79
1389765.3035,2190.83,13646.32,35241.89,35344.75,25332.02,28815.46,13246.97,8602.1
1389765.3055,5197.67,14378.02,35220.44,35355.0,25225.36,28977.45,13967.75,8494.62
1389765.3075,7655.91,15232.09,35138.09,35289.63,25072.01,29082.83,14762.55,8351.71
1389765.3095,8085.39,15754.99,35023.98,35173.99,24940.54,29064.56,15209.2,8229.73
1389765.3115,6304.07,15717.17,34942.44,35063.84,24900.2,28927.85,15101.29,8190.35
1389765.3135,2476.93,14957.67,34919.22,34995.13,24979.26,28699.88,14326.05,8267.88
1389765.3155,-679.97,13929.13,34998.52,35046.96,25151.4,28554.97,13363.51,8431.86
1389765.3175,-1110.6,13320.59,35136.42,35182.53,25299.6,28580.57,12848.38,8568.67
1389765.3195,1205.4,13469.89,35240.61,35305.84,25337.84,28752.76,13064.39,8593.61
1389765.3215,4165.36,14100.46,35245.8,35346.18,25266.22,28926.57,13706.64,8520.41
1389765.3235,7014.37,14955.24,35174.33,35308.03,25116.49,29061.8,14516.4,8386.9
1389765.3255,8175.99,15637.64,35060.6,35200.98,24972.78,29096.32,15119.27,8256.96
1389765.3275,7187.22,15808.01,34959.27,35084.2,24898.68,29007.06,15220.02,8186.34
1389765.3295,3865.67,15284.02,34912.73,35006.96,24944.83,28797.44,14654.35,8224.73
1389765.3315,151.06,14276.51,34972.48,35039.1,25109.2,28611.81,13686.23,8362.2
1389765.3335,-1328.56,13457.01,35092.17,35153.11,25271.32,28574.42,12955.29,8510.5
1389765.3355,244.76,13344.43,35202.17,35288.72,25341.66,28706.51,12915.33,8595.61
1389765.3375,3147.94,13857.56,35242.51,35350.76,25303.7,28900.44,13462.97,8567.91
1389765.3395,6150.34,14664.22,35202.94,35337.79,25177.72,29052.64,14247.85,8446.27
1389765.3415,8021.4,15451.77,35101.18,35252.19,25018.98,29106.91,14967.63,8292.39
1389765.3435,7778.22,15809.92,34990.84,35122.49,24909.55,29062.7,15256.22,8198.5
1389765.3455,5185.75,15535.12,34913.73,35001.9,24901.3,28873.3,14923.29,8204.41
1389765.3475,1210.07,14607.86,34923.75,34973.1,25027.85,28630.64,14007.47,8324.05
1389765.3495,-1175.17,13655.28,35037.95,35067.04,25214.87,28548.15,13139.87,8489.75
1389765.3515,-574.26,13284.88,35170.03,35215.57,25331.55,28633.84,12840.61,8596.47
1389765.3535,2160.5,13636.69,35235.12,35317.62,25323.97,28812.32,13226.65,8586.65
1389765.3555,5143.93,14364.15,35220.91,35340.36,25226.55,28979.64,13945.06,8498.24
1389765.3575,7654.1,15226.75,35146.62,35296.11,25079.92,29087.17,14750.29,8353.71
1389765.3595,8086.01,15753.8,35030.66,35177.57,24945.36,29071.0,15202.76,8224.63
1389765.3615,6349.99,15718.18,34939.87,35056.74,24896.24,28935.63,15104.01,8176.95
1389765.3635,2523.85,14982.65,34928.66,35000.28,24989.23,28720.14,14351.32,8266.16
1389765.3655,-641.87,13954.93,35002.66,35056.5,25159.65,28567.46,13387.16,8428.53
1389765.3675,-1131.58,13328.22,35124.78,35186.2,25300.65,28573.8,12853.05,8561.8
1389765.3695,1175.4,13465.55,35220.34,35310.56,25335.6,28740.22,13056.8,8580.83
1389765.3715,4115.77,14095.31,35230.5,35347.85,25259.64,28923.23,13699.2,8503.68
1389765.3735,6985.14,14946.65,35169.99,35312.9,25111.96,29062.08,14502.96,8374.79
1389765.3755,8162.79,15621.95,35052.11,35201.74,24956.52,29087.74,15103.87,8241.56
1389765.3775,7219.03,15799.48,34954.84,35093.12,24883.42,28998.66,15220.36,8174.94
1389765.3795,3919.17,15293.84,34910.49,35015.25,24928.91,28795.67,14669.66,8210.99
1389765.3815,195.74,14278.27,34966.66,35026.03,25092.99,28607.04,13693.81,8364.54
1389765.3835,-1317.12,13456.2,35086.92,35130.79,25260.4,28563.55,12962.25,8524.8
1389765.3855,220.58,13331.41,35201.08,35272.55,25332.55,28693.25,12900.83,8595.9
1389765.3875,3119.71,13843.11,35240.37,35341.17,25287.2,28879.55,13441.9,8560.32
1389765.3895,6119.63,14644.82,35198.26,35323.24,25163.08,29036.33,14218.76,8441.12
1389765.3915,8038.47,15446.04,35096.55,35235.79,25005.63,29106.1,14947.27,8290.29
1389765.3935,7793.33,15805.82,34986.64,35131.89,24904.92,29053.31,15240.24,8192.64
1389765.3955,5260.28,15554.0,34922.03,35036.66,24912.31,28881.55,14925.05,8203.7
1389765.3975,1291.47,14645.34,34945.35,35009.53,25054.6,28669.89,14027.12,8337.64
1389765.3995,-1125.62,13689.0,35050.44,35093.12,25227.12,28567.84,13153.79,8500.0
1389765.4015,-609.11,13287.21,35170.18,35231.02,25328.69,28629.35,12837.84,8601.38
1389765.4035,2140.47,13636.26,35237.51,35331.54,25314.19,28809.55,13224.7,8590.41
1389765.4055,5098.87,14352.04,35219.39,35339.69,25217.01,28978.88,13937.52,8493.71
1389765.4075,7644.7,15219.12,35136.04,35279.52,25063.85,29089.5,14739.99,8344.99
1389765.4095,8084.68,15746.98,35023.5,35159.31,24938.01,29070.57,15193.75,8217.1
1389765.4115,6410.74,15736.06,34933.71,35054.64,24895.72,28946.74,15111.73,8176.04
1389765.4135,2571.82,15005.88,34927.56,35012.3,24995.43,28725.91,14365.39,8273.94
1389765.4155,-582.74,13989.4,35015.54,35081.53,25171.76,28573.04,13420.87,8431.72
1389765.4175,-1156.23,13340.76,35136.37,35211.9,25310.23,28580.1,12867.83,8547.83
1389765.4195,1144.65,13466.26,35225.68,35321.57,25333.07,28732.92,13039.73,8571.77
1389765.4215,4059.94,14087.96,35241.27,35347.47,25257.3,28910.45,13659.53,8512.88
1389765.4235,6977.51,14946.7,35179.29,35309.37,25114.25,29052.17,14481.69,8391.19
1389765.4255,8155.01,15628.01,35070.23,35202.32,24971.77,29084.59,15096.48,8266.59
1389765.4275,7274.58,15814.74,34965.47,35091.98,24890.33,28995.18,15212.49,8191.73
1389765.4295,3949.36,15305.43,34912.97,35006.38,24931.72,28790.24,14657.17,8233.45
1389765.4315,235.94,14298.87,34969.38,35025.65,25098.23,28606.85,13692.43,8391.81
1389765.4335,-1333.95,13468.98,35095.12,35139.14,25267.79,28562.22,12955.95,8546.5
1389765.4355,190.31,13330.51,35205.8,35276.08,25334.79,28682.19,12901.07,8606.1
1389765.4375,3051.47,13828.61,35240.13,35346.61,25287.49,28862.72,13431.5,8562.52
1389765.4395,6091.98,14633.56,35204.37,35335.97,25169.76,29024.27,14216.0,8451.03
1389765.4415,8011.2,15442.42,35110.24,35252.53,25018.55,29104.19,14957.62,8306.41
1389765.4435,7836.06,15818.03,35005.29,35136.56,24919.42,29063.61,15260.27,8202.22
1389765.4455,5316.4,15571.74,34933.24,35031.94,24918.03,28901.06,14956.38,8192.68
1389765.4475,1353.17,14654.64,34943.92,35002.05,25041.96,28678.61,14046.43,8316.52
1389765.4495,-1127.29,13694.1,35049.11,35090.69,25218.16,28578.67,13162.85,8489.66
1389765.4515,-613.31,13292.03,35178.57,35236.84,25331.07,28626.78,12854.67,8589.98
1389765.4535,2092.08,13633.35,35244.9,35342.51,25322.3,28794.91,13247.49,8588.36
1389765.4555,5064.15,14346.51,35224.01,35362.87,25219.06,28961.8,13943.29,8495.95
1389765.4575,7612.56,15210.53,35139.47,35302.07,25062.75,29075.77,14737.32,8329.3
1389765.4595,8103.66,15744.54,35026.51,35179.81,24935.87,29078.92,15211.97,8199.41
1389765.4615,6446.31,15741.92,34938.63,35066.99,24892.62,28962.9,15145.26,8165.55
1389765.4635,2623.94,15003.97,34915.88,34993.56,24976.21,28732.3,14385.89,8256.15
1389765.4655,-585.84,13974.19,34991.41,35039.57,25144.53,28571.42,13410.47,8420.71
1389765.4675,-1179.6,13328.41,35129.36,35175.38,25301.17,28594.88,12865.93,8574.44
1389765.4695,1111.89,13465.55,35236.79,35316.66,25345.81,28764.73,13064.91,8624.36
1389765.4715,4023.6,14071.47,35243.94,35354.09,25268.94,28933.58,13680.32,8563.42
1389765.4735,6935.64,14923.29,35172.9,35312.47,25109.06,29051.4,14485.98,8416.56
1389765.4755,8139.66,15604.69,35057.45,35206.27,24959.09,29068.52,15094.71,8266.4
1389765.4775,7281.45,15802.67,34950.36,35087.49,24880.03,28985.07,15219.55,8181.62
1389765.4795,4011.35,15311.72,34904.44,35006.34,24927.33,28784.95,14675.38,8221.72
1389765.4815,273.47,14310.89,34959.23,35021.4,25090.84,28597.93,13706.35,8375.55
1389765.4835,-1360.04,13467.41,35089.16,35128.65,25264.65,28556.02,12956.86,8538.15
1389765.4855,151.3,13339.28,35208.52,35269.46,25343.8,28690.48,12913.09,8610.49
1389765.4875,3009.13,13832.48,35246.57,35341.36,25305.51,28870.97,13444.23,8579.11
1389765.4895,6047.87,14632.75,35206.13,35336.69,25180.53,29014.92,14214.8,8455.75
1389765.4915,7977.82,15427.35,35103.13,35248.33,25022.46,29089.26,14944.13,8301.5
1389765.4935,7843.07,15806.1,34986.21,35130.46,24911.84,29038.29,15244.91,8195.07
1389765.4955,5321.17,15561.06,34912.88,35032.13,24904.87,28872.3,14936.83,8191.97
1389765.4975,1377.39,14663.51,34929.71,35011.53,25028.61,28665.55,14027.31,8302.5
1389765.4995,-1162.15,13682.94,35033.13,35087.88,25203.61,28561.02,13127.28,8468.92
1389765.5015,-661.71,13276.1,35160.45,35231.4,25320.1,28616.43,12808.85,8587.84
1389765.5035,2009.39,13602.97,35225.11,35331.16,25315.29,28788.52,13190.32,8583.21
1389765.5055,5012.7,14331.77,35218.67,35352.38,25227.26,28959.85,13907.82,8487.23
1389765.5075,7558.3,15193.32,35143.52,35296.49,25078.73,29068.0,14708.33,8341.79
1389765.5095,8102.13,15739.97,35027.56,35192.88,24945.12,29055.07,15178.35,8207.75
1389765.5115,6458.76,15737.25,34938.39,35092.55,24895.05,28929.62,15105.73,8168.27
1389765.5135,2694.32,15028.53,34927.09,35031.7,24987.84,28720.14,14371.97,8279.9
1389765.5155,-562.76,14002.28,35014.87,35072.62,25170.71,28575.57,13414.29,8466.15
1389765.5175,-1176.88,13336.85,35131.55,35184.77,25306.75,28574.95,12844.47,8596.76
1389765.5195,1024.53,13427.4,35210.38,35287.38,25326.26,28712.9,13009.17,8609.25
1389765.5215,3972.24,14040.76,35221.29,35323.39,25252.87,28884.7,13642.5,8536.15
1389765.5235,6880.86,14909.84,35178.71,35308.37,25123.89,29041.34,14473.15,8413.41
1389765.5255,8165.98,15611.46,35075.72,35216.48,24983.5,29082.92,15099.48,8283.52
1389765.5275,7312.82,15816.5,34973.82,35099.18,24907.83,29000.29,15216.16,8209.28
1389765.5295,4092.22,15333.7,34923.18,35010.87,24950.41,28795.96,14675.76,8240.99
1389765.5315,294.11,14321.85,34972.96,35020.98,25106.43,28599.89,13706.45,8377.27
1389765.5335,-1341.77,13467.69,35090.36,35126.59,25273.85,28548.2,12947.85,8525.99
1389765.5355,100.99,13317.21,35207.23,35267.98,25352.62,28677.42,12881.95,8603.57
1389765.5375,2986.0,13809.16,35250.57,35342.03,25310.71,28857.43,13404.42,8577.3
1389765.5395,5987.55,14607.24,35209.8,35346.94,25179.77,29011.63,14164.21,8455.33
1389765.5415,7981.83,15419.29,35110.38,35271.22,25017.5,29093.41,14906.74,8296.2
1389765.5435,7842.21,15802.91,34994.65,35144.24,24908.31,29035.95,15221.17,8184.96
1389765.5455,5400.94,15578.32,34927.23,35046.01,24916.13,28874.35,14932.63,8190.16
1389765.5475,1432.71,14680.67,34942.25,35007.05,25047.11,28665.69,14045.76,8324.43
1389765.5495,-1108.88,13706.45,35048.25,35086.35,25230.94,28567.6,13156.7,8506.25
1389765.5515,-681.92,13294.75,35187.15,35237.6,25359.73,28617.86,12829.35,8630.71
1389765.5535,2019.45,13622.91,35265.26,35349.33,25360.73,28799.39,13211.39,8623.84
1389765.5555,4987.19,14328.43,35243.09,35360.96,25254.3,28965.76,13910.25,8517.41
1389765.5575,7562.83,15181.35,35154.25,35303.98,25093.94,29066.28,14704.13,8373.12
1389765.5595,8106.38,15728.86,35029.65,35182.96,24953.42,29045.54,15171.05,8242.89
1389765.5615,6501.01,15725.61,34936.0,35066.32,24898.82,28918.56,15093.76,8188.63
1389765.5635,2732.23,15022.04,34923.22,35001.09,24983.79,28708.27,14368.06,8271.5
1389765.5655,-546.55,13993.26,35001.47,35043.67,25152.59,28562.02,13408.71,8434.77
1389765.5675,-1208.16,13336.61,35123.83,35169.41,25299.41,28579.91,12852.0,8577.59
1389765.5695,1009.18,13436.37,35220.25,35298.3,25342.52,28735.78,13016.75,8611.87
1389765.5715,3950.93,14053.01,35238.13,35348.85,25281.15,28910.78,13644.27,8542.06
1389765.5735,6846.0,14899.3,35180.29,35325.1,25140.91,29046.4,14446.16,8397.68
1389765.5755,8149.2,15601.06,35068.13,35220.06,24989.99,29067.85,15073.92,8252.53
1389765.5775,7325.7,15800.76,34961.7,35094.55,24902.06,28978.16,15203.38,8180.57
1389765.5795,4129.46,15325.21,34904.63,34997.85,24928.24,28775.84,14682.68,8211.42
1389765.5815,321.1,14315.65,34956.65,35008.1,25084.55,28588.58,13711.79,8360.01
1389765.5835,-1334.0,13473.89,35084.68,35129.5,25257.78,28549.67,12962.06,8532.67
1389765.5855,55.89,13309.19,35207.18,35284.9,25339.8,28669.5,12879.56,8619.6
1389765.5875,2951.43,13802.72,35252.0,35361.48,25302.17,28840.59,13406.8,8585.93
1389765.5895,5961.13,14603.9,35231.17,35362.34,25196.65,29005.1,14190.25,8472.49
1389765.5915,7994.03,15429.93,35140.28,35288.91,25055.79,29095.03,14948.23,8326.58
1389765.5935,7863.62,15817.83,35025.17,35167.65,24950.55,29048.49,15262.7,8226.44
1389765.5955,5458.74,15593.67,34938.39,35053.54,24929.72,28871.59,14957.48,8210.37
1389765.5975,1469.33,14686.97,34939.01,35011.87,25045.25,28643.42,14054.54,8322.05
1389765.5995,-1085.23,13709.69,35041.24,35082.2,25221.16,28535.66,13155.75,8492.52
1389765.6015,-728.23,13271.48,35167.17,35209.61,25340.7,28599.36,12807.99,8608.39
1389765.6035,1984.41,13595.06,35243.94,35319.38,25341.32,28785.04,13183.55,8599.66
1389765.6055,4930.31,14302.4,35234.74,35346.8,25244.76,28955.51,13890.08,8498.29
1389765.6075,7546.0,15174.53,35156.64,35298.88,25086.31,29074.05,14698.94,8349.04
1389765.6095,8081.1,15721.85,35035.04,35180.67,24944.74,29058.94,15167.91,8231.4
1389765.6115,6554.65,15744.12,34948.78,35075.38,24894.38,28934.43,15119.7,8195.16
1389765.6135,2784.54,15038.16,34924.89,35008.58,24977.64,28710.75,14390.85,8275.27
1389765.6155,-479.08,14015.72,35008.72,35064.42,25154.74,28569.03,13433.65,8443.26
1389765.6175,-1212.07,13349.15,35141.04,35201.36,25315.24,28591.59,12867.02,8593.27
1389765.6195,1004.55,13446.52,35238.41,35328.44,25362.16,28758.91,13036.59,8634.09
1389765.6215,3904.49,14045.43,35247.85,35368.35,25296.79,28932.72,13656.52,8567.43
1389765.6235,6840.56,14897.87,35189.39,35343.41,25154.07,29058.75,14463.62,8427.67
1389765.6255,8136.7,15598.97,35076.48,35236.36,25006.3,29079.49,15088.27,8282.81
1389765.6275,7367.99,15810.97,34967.14,35109.0,24917.13,28986.08,15216.64,8194.73
1389765.6295,4171.52,15342.14,34908.97,35015.78,24939.87,28780.99,14694.98,8217.14
1389765.6315,387.72,14334.87,34952.02,35019.35,25078.25,28583.72,13716.51,8352.95
1389765.6335,-1339.34,13486.2,35081.63,35120.83,25254.73,28536.75,12961.77,8522.89
1389765.6355,56.17,13326.6,35216.96,35272.08,25350.62,28669.74,12885.48,8620.41
1389765.6375,2919.87,13812.45,35261.25,35346.7,25318.53,28853.32,13402.94,8585.98
1389765.6395,5939.1,14600.95,35225.82,35344.94,25201.37,29014.35,14172.51,8458.14
1389765.6415,7959.32,15410.23,35124.12,35264.07,25045.59,29092.46,14917.57,8306.7
1389765.6435,7868.43,15797.19,35006.67,35146.62,24933.15,29042.44,15237.14,8202.03
1389765.6455,5477.24,15583.9,34927.18,35041.0,24917.37,28877.69,14961.34,8194.16
1389765.6475,1520.35,14692.59,34933.71,35008.48,25035.58,28658.92,14074.52,8317.57
1389765.6495,-1083.18,13718.75,35034.66,35090.07,25211.86,28554.68,13175.82,8489.75
1389765.6515,-744.1,13281.68,35169.27,35234.41,25339.08,28634.03,12826.16,8609.34
1389765.6535,1945.26,13606.74,35247.0,35339.17,25344.33,28822.71,13202.1,8614.21
1389765.6555,4906.85,14305.78,35236.55,35359.58,25249.39,28984.98,13903.71,8511.93
1389765.6575,7523.49,15173.58,35158.59,35312.61,25095.13,29104.19,14711.29,8355.76
1389765.6595,8103.75,15723.9,35043.05,35197.55,24962.43,29068.62,15178.11,8230.64
1389765.6615,6585.17,15748.31,34946.35,35080.01,24896.53,28919.99,15120.13,8182.81
1389765.6635,2816.58,15036.68,34913.35,34993.18,24963.67,28699.59,14391.61,8258.39
1389765.6655,-473.74,14016.15,34993.99,35036.57,25138.91,28549.01,13435.08,8427.86
1389765.6675,-1234.29,13337.76,35133.41,35173.47,25304.75,28560.59,12852.0,8583.21
1389765.6695,963.35,13437.61,35247.62,35317.71,25356.72,28736.79,13018.99,8634.19
1389765.6715,3875.92,14039.18,35267.31,35376.31,25297.45,28917.98,13643.41,8575.63
1389765.6735,6823.45,14894.77,35199.36,35352.9,25147.92,29056.93,14448.45,8430.53
1389765.6755,8136.23,15590.34,35075.86,35237.36,24983.55,29087.02,15067.01,8272.03
1389765.6775,7386.97,15812.73,34962.8,35105.85,24889.23,29008.44,15218.93,8174.85
1389765.6795,4220.68,15352.25,34907.73,35009.29,24928.24,28808.74,14707.38,8202.46
1389765.6815,435.83,14357.52,34955.79,35014.44,25088.65,28608.09,13738.82,8349.99
1389765.6835,-1346.59,13482.62,35073.86,35115.2,25257.64,28532.13,12960.24,8519.22
1389765.6855,23.41,13318.97,35205.75,35268.55,25350.29,28656.2,12881.04,8616.83
1389765.6875,2864.46,13791.52,35255.01,35345.42,25314.86,28852.9,13395.26,8587.65
1389765.6895,5897.43,14577.77,35214.86,35337.21,25193.84,29003.72,14152.67,8465.67
1389765.6915,7924.08,15386.63,35112.91,35250.38,25042.58,29073.62,14888.15,8310.03
1389765.6935,7891.56,15801.48,35006.43,35137.8,24936.11,29037.43,15220.55,8202.89
1389765.6955,5521.92,15598.2,34933.24,35030.89,24921.75,28878.84,14959.77,8192.73
1389765.6975,1588.15,14720.06,34939.2,34997.18,25032.48,28659.54,14095.69,8303.4
1389765.6995,-1082.61,13727.91,35038.24,35080.15,25212.0,28547.91,13190.32,8463.38
1389765.7015,-748.83,13290.84,35174.42,35233.41,25342.99,28611.9,12834.6,8564.66
1389765.7035,1880.6,13585.9,35252.77,35340.31,25346.28,28787.0,13166.43,8572.25
1389765.7055,4861.69,14281.89,35241.51,35354.24,25251.34,28949.93,13859.56,8502.82
1389765.7075,7469.85,15143.83,35156.54,35291.58,25093.03,29061.03,14673.04,8370.92
1389765.7095,8122.25,15720.61,35039.67,35173.52,24957.85,29057.89,15182.45,8249.24
1389765.7115,6597.33,15749.84,34946.87,35061.84,24905.97,28939.63,15138.77,8197.02
1389765.7135,2899.17,15061.19,34922.56,34994.89,24978.55,28716.28,14411.5,8256.58
1389765.7155,-454.14,14028.84,34996.28,35037.43,25143.34,28557.92,13437.27,8405.92
1389765.7175,-1216.13,13354.68,35128.74,35186.34,25305.32,28574.9,12862.02,8541.82
1389765.7195,908.04,13430.36,35231.36,35319.43,25350.76,28740.74,13003.88,8583.93
1389765.7215,3847.65,14026.31,35248.09,35359.82,25285.39,28917.03,13616.61,8531.86
1389765.7235,6776.14,14875.03,35196.02,35320.67,25152.35,29059.6,14428.19,8413.79
1389765.7255,8158.88,15588.95,35082.77,35206.85,25006.54,29089.26,15067.53,8280.56
1389765.7275,7411.43,15816.12,34971.62,35083.68,24918.51,29005.67,15222.46,8198.93
1389765.7295,4290.1,15367.37,34916.55,34997.85,24944.02,28805.45,14724.07,8224.35
1389765.7315,464.73,14375.02,34959.75,35006.19,25090.98,28608.18,13774.4,8364.44
1389765.7335,-1305.87,13513.28,35082.68,35120.92,25263.6,28561.36,13016.51,8526.85
1389765.7355,-18.93,13324.17,35205.08,35259.01,25353.43,28688.72,12911.75,8612.2
1389765.7375,2847.43,13793.61,35250.24,35331.4,25321.11,28882.32,13404.9,8578.92
1389765.7395,5859.23,14581.16,35217.91,35329.63,25202.66,29044.35,14161.97,8468.34
1389765.7415,7940.53,15392.16,35120.06,35251.81,25040.1,29117.92,14904.98,8323.34
1389765.7435,7908.2,15803.86,35003.9,35133.89,24925.14,29073.86,15243.82,8210.33
1389765.7455,5583.24,15608.93,34930.61,35035.52,24915.36,28887.28,14978.84,8187.58
1389765.7475,1614.09,14724.45,34930.85,34987.45,25027.33,28654.86,14095.69,8287.0
1389765.7495,-1039.41,13737.54,35033.09,35063.22,25206.9,28559.5,13192.61,8453.42
1389765.7515,-774.48,13288.59,35170.75,35213.43,25334.41,28621.53,12834.36,8561.56
1389765.7535,1863.62,13581.18,35247.85,35322.48,25335.84,28800.92,13185.74,8564.66
1389765.7555,4827.4,14277.75,35243.13,35344.75,25241.33,28966.86,13879.83,8492.42
1389765.7575,7480.57,15140.82,35171.94,35291.34,25088.03,29080.54,14684.39,8366.82
1389765.7595,8156.68,15724.61,35059.89,35185.44,24959.85,29080.39,15190.89,8247.57
1389765.7615,6675.67,15753.37,34955.08,35076.43,24902.63,28952.17,15147.59,8186.2
1389765.7635,2955.25,15070.15,34914.31,35000.04,24968.63,28721.19,14432.1,8242.66
1389765.7655,-403.98,14041.95,34988.55,35037.52,25140.57,28568.94,13468.74,8395.34
1389765.7675,-1222.18,13353.73,35115.44,35161.07,25297.55,28569.42,12876.32,8543.87
1389765.7695,869.04,13413.81,35216.14,35285.57,25339.7,28721.77,13002.68,8592.03
1389765.7715,3795.05,14007.09,35234.79,35332.06,25270.8,28896.86,13611.56,8531.62
1389765.7735,6735.85,14849.71,35184.1,35305.12,25133.66,29049.45,14418.08,8401.68
1389765.7755,8160.16,15577.41,35069.14,35205.8,24983.89,29095.61,15064.53,8259.96
1389765.7775,7445.48,15816.6,34964.71,35089.93,24902.78,29022.27,15233.95,8185.96
1389765.7795,4363.25,15389.73,34913.93,35007.34,24930.29,28813.79,14749.86,8208.85
1389765.7815,495.1,14387.75,34950.88,35009.53,25072.1,28596.93,13778.83,8343.08
1389765.7835,-1310.44,13527.06,35075.72,35118.3,25244.86,28552.44,13014.75,8511.88
1389765.7855,-57.36,13327.79,35207.47,35260.3,25342.99,28676.23,12898.26,8609.2
1389765.7875,2818.35,13791.9,35257.63,35337.83,25311.62,28863.1,13400.7,8573.96
1389765.7895,5807.78,14564.47,35220.34,35339.55,25192.45,29017.31,14151.96,8460.95
1389765.7915,7940.91,15386.3,35113.96,35259.63,25031.0,29089.74,14901.12,8295.11
1389765.7935,7918.93,15800.76,34996.51,35130.41,24919.08,29049.16,15247.44,8182.0
1389765.7955,5645.42,15626.38,34920.6,35025.27,24908.83,28892.23,15009.12,8174.94
1389765.7975,1668.17,14759.49,34931.0,34986.98,25029.71,28678.95,14152.72,8298.78
1389765.7995,-1007.03,13775.25,35031.04,35069.85,25208.05,28568.18,13238.43,8469.53
1389765.8015,-814.91,13301.33,35162.74,35218.05,25335.03,28614.76,12840.08,8587.98
1389765.8035,1849.46,13590.86,35239.41,35324.39,25333.36,28789.76,13165.52,8592.61
1389765.8055,4783.82,14280.23,35227.06,35334.88,25236.42,28957.75,13864.71,8507.06
1389765.8075,7474.38,15142.63,35149.2,35279.14,25079.21,29074.34,14673.85,8355.81
1389765.8095,8135.03,15714.98,35031.9,35163.6,24942.93,29070.81,15171.82,8221.77
1389765.8115,6730.46,15780.64,34945.97,35068.85,24896.82,28965.19,15164.47,8174.61
1389765.8135,3001.64,15114.21,34924.32,35005.86,24975.16,28749.95,14471.1,8250.43
1389765.8155,-365.97,14077.38,34993.84,35039.81,25138.95,28586.44,13498.36,8405.73
1389765.8175,-1253.56,13377.1,35128.88,35175.28,25299.7,28588.82,12898.64,8564.04
1389765.8195,849.91,13428.88,35228.21,35305.65,25343.37,28738.41,13024.95,8607.44
1389765.8215,3750.85,14007.9,35242.08,35353.47,25275.14,28901.87,13613.61,8538.68
1389765.8235,6727.36,14850.57,35184.67,35324.91,25135.47,29041.96,14405.16,8402.78
1389765.8255,8145.29,15579.65,35077.86,35215.53,24993.42,29087.98,15063.19,8264.4
1389765.8275,7483.1,15826.61,34971.43,35088.21,24903.82,29001.05,15245.01,8179.43
1389765.8295,4395.58,15401.03,34914.55,34994.22,24926.57,28806.36,14770.8,8194.97
1389765.8315,552.7,14416.22,34959.18,35009.87,25079.59,28623.16,13809.02,8316.71
1389765.8335,-1308.63,13547.8,35086.11,35132.46,25259.64,28581.72,13018.9,8489.51
1389765.8355,-67.81,13338.81,35214.52,35281.47,25356.82,28704.41,12894.11,8601.0
1389765.8375,2773.43,13799.1,35261.02,35353.62,25327.21,28878.84,13393.17,8583.21
1389765.8395,5800.15,14571.62,35225.2,35337.88,25199.32,29038.15,14147.57,8464.0
1389765.8415,7930.33,15394.12,35121.25,35254.43,25028.76,29113.01,14894.01,8295.2
1389765.8435,7940.34,15807.58,35003.09,35131.89,24911.03,29056.5,15228.23,8182.24
1389765.8455,5674.65,15634.92,34924.99,35030.56,24894.96,28857.28,14988.09,8176.09
1389765.8475,1709.75,14766.36,34927.47,34995.99,25011.35,28636.46,14125.49,8296.73
1389765.8495,-1012.99,13779.21,35025.65,35075.81,25192.17,28527.88,13213.06,8469.96
1389765.8515,-843.86,13301.85,35162.64,35222.39,25323.92,28593.73,12828.49,8591.65
1389765.8535,1783.28,13583.85,35239.94,35327.49,25328.35,28779.56,13162.33,8593.46
1389765.8555,4748.11,14273.55,35239.22,35349.42,25244.19,28956.89,13850.74,8511.74
1389765.8575,7464.12,15155.13,35173.56,35307.36,25103.52,29080.54,14670.23,8375.79
1389765.8595,8162.4,15736.1,35066.18,35193.16,24974.83,29075.24,15181.16,8249.43
1389765.8615,6778.19,15799.1,34974.29,35085.97,24916.37,28960.04,15172.44,8192.16
1389765.8635,3064.39,15125.32,34942.11,35011.68,24982.03,28732.26,14467.34,8253.62
1389765.8655,-340.51,14095.02,35013.3,35042.39,25148.35,28567.89,13496.64,8406.35
1389765.8675,-1271.53,13385.77,35150.48,35176.33,25310.33,28575.38,12886.95,8562.09
1389765.8695,828.41,13441.33,35254.48,35314.52,25359.3,28738.65,13010.41,8613.78
1389765.8715,3726.24,14014.91,35265.59,35363.39,25292.69,28910.35,13607.46,8553.08
1389765.8735,6716.4,14867.78,35206.13,35341.17,25158.5,29057.6,14416.27,8420.9
1389765.8755,8151.96,15589.86,35093.26,35238.79,25006.96,29101.33,15064.43,8274.17
1389765.8775,7517.0,15845.11,34983.26,35118.3,24911.12,29019.84,15246.82,8188.11
1389765.8795,4442.64,15415.38,34916.55,35018.59,24928.91,28810.31,14769.13,8200.65
1389765.8815,601.67,14438.63,34965.47,35021.02,25083.5,28602.89,13820.65,8347.46
1389765.8835,-1325.8,13543.23,35083.44,35116.39,25255.54,28540.71,13015.18,8514.83
1389765.8855,-107.34,13327.22,35208.13,35260.54,25344.99,28654.58,12880.04,8601.0
1389765.8875,2726.7,13776.21,35260.49,35342.41,25317.67,28849.51,13377.57,8576.01
1389765.8895,5775.83,14555.89,35229.59,35342.89,25204.9,29017.02,14144.71,8469.06
1389765.8915,7922.94,15380.19,35137.51,35273.13,25051.55,29108.29,14909.89,8311.42
1389765.8935,7990.03,15814.88,35025.31,35159.74,24936.63,29063.56,15263.37,8188.53
1389765.8955,5729.72,15645.32,34946.83,35052.26,24913.22,28885.08,15018.13,8165.22
1389765.8975,1804.5,14805.03,34962.42,35023.84,25038.2,28678.95,14172.27,8304.64
1389765.8995,-985.0,13802.01,35062.32,35098.37,25215.82,28562.64,13254.41,8493.9
1389765.9015,-837.42,13306.67,35179.24,35230.88,25329.97,28606.66,12829.93,8610.15
1389765.9035,1728.11,13564.92,35246.09,35328.87,25331.88,28780.32,13138.58,8613.54
1389765.9055,4729.41,14256.24,35237.7,35353.57,25248.72,28952.32,13835.86,8524.23
1389765.9075,7414.15,15119.98,35160.35,35301.36,25100.33,29073.67,14652.3,8369.59
1389765.9095,8171.94,15715.41,35044.63,35191.06,24964.76,29071.29,15172.53,8236.93
1389765.9115,6773.14,15772.87,34949.07,35073.28,24906.83,28948.41,15157.65,8180.43
1389765.9135,3127.0,15125.71,34921.13,35003.76,24976.4,28728.82,14479.26,8245.28
1389765.9155,-329.78,14097.55,34995.75,35038.71,25144.63,28565.93,13507.08,8403.45
1389765.9175,-1260.19,13384.96,35129.6,35162.88,25300.41,28565.12,12889.1,8552.41
1389765.9195,757.12,13416.34,35230.21,35285.86,25343.33,28714.99,12985.71,8599.76
1389765.9215,3695.68,13997.37,35254.29,35343.08,25287.35,28894.86,13580.8,8550.69
1389765.9235,6660.18,14841.46,35202.79,35327.3,25154.59,29045.2,14395.86,8422.28
1389765.9255,8166.79,15574.41,35092.5,35234.17,25002.58,29097.37,15064.77,8271.65
1389765.9275,7533.74,15838.48,34989.27,35124.88,24917.8,29028.61,15255.74,8188.82
1389765.9295,4538.73,15445.04,34944.97,35043.48,24954.04,28843.45,14795.11,8227.59
1389765.9315,647.54,14464.76,34983.02,35029.61,25100.9,28633.17,13836.81,8367.73
1389765.9335,-1277.3,13569.02,35098.27,35122.02,25271.9,28560.12,13034.15,8522.03
1389765.9355,-150.73,13327.7,35216.1,35265.93,25358.68,28659.68,12874.37,8596.71
1389765.9375,2690.17,13757.33,35260.59,35347.9,25320.68,28826.29,13342.14,8561.42
1389765.9395,5705.79,14526.7,35230.12,35340.93,25201.13,28992.75,14098.36,8443.83
1389765.9415,7913.97,15366.46,35143.57,35271.32,25051.74,29112.25,14878.32,8298.68
1389765.9435,7983.69,15810.21,35034.09,35152.44,24934.2,29091.27,15246.06,8192.92
1389765.9455,5786.13,15646.46,34951.21,35040.53,24905.64,28922.37,15015.03,8181.53
1389765.9475,1834.01,14796.93,34949.02,34994.65,25016.88,28679.47,14165.59,8296.97
1389765.9495,-954.68,13804.44,35052.78,35080.39,25208.19,28553.25,13257.27,8475.54
1389765.9515,-848.2,13320.83,35193.16,35233.64,25353.15,28609.61,12860.44,8606.67
1389765.9535,1738.21,13584.76,35274.75,35342.27,25363.88,28795.87,13177.87,8615.59
1389765.9555,4715.01,14272.98,35271.03,35367.73,25275.76,28975.16,13866.71,8532.95
1389765.9575,7421.11,15137.2,35205.61,35327.25,25124.27,29106.91,14677.57,8390.9
1389765.9595,8192.44,15739.82,35096.74,35214.33,24986.17,29115.39,15204.57,8248.38
1389765.9615,6846.24,15811.59,35002.33,35104.37,24928.24,29004.29,15202.09,8192.11
1389765.9635,3213.69,15176.58,34970.24,35028.03,25001.34,28781.23,14533.04,8268.26
1389765.9655,-254.73,14133.5,35031.47,35059.98,25166.94,28605.75,13552.76,8424.09
1389765.9675,-1241.06,13410.05,35154.06,35187.92,25326.45,28598.26,12915.09,8569.96
1389765.9695,745.11,13432.79,35258.73,35330.35,25384.1,28749.18,13008.26,8622.36
1389765.9715,3682.28,14011.72,35278.04,35381.51,25317.81,28920.46,13604.69,8570.72
1389765.9735,6646.49,14848.81,35225.82,35353.38,25179.77,29061.51,14403.77,8448.51
1389765.9755,8158.88,15582.47,35112.53,35243.32,25021.08,29097.04,15064.15,8295.35
1389765.9775,7544.33,15839.67,35002.38,35122.59,24925.71,29019.07,15252.64,8192.73
1389765.9795,4578.07,15447.19,34939.58,35032.71,24946.03,28826.19,14799.6,8202.22
1389765.9815,663.19,14455.13,34968.14,35015.16,25083.12,28623.06,13835.86,8342.93
1389765.9835,-1283.46,13563.21,35083.11,35113.34,25255.16,28564.55,13037.78,8517.93
1389765.9855,-183.68,13320.88,35207.7,35259.25,25351.72,28676.51,12884.38,8608.58
1389765.9875,2672.72,13765.43,35253.82,35332.92,25316.05,28842.26,13364.89,8574.68
1389765.9895,5660.92,14531.61,35226.73,35334.35,25204.57,28984.69,14103.75,8474.06
1389765.9915,7892.85,15364.93,35135.32,35262.21,25047.26,29072.91,14852.48,8330.63
1389765.9935,7959.27,15799.86,35023.26,35145.95,24934.63,29049.83,15225.27,8219.2
1389765.9955,5836.01,15665.2,34948.16,35044.25,24917.75,28907.78,15031.96,8200.69
1389765.9975,1854.04,14805.46,34940.63,34985.83,25024.61,28663.69,14172.32,8296.97
1389765.9995,-942.8,13804.39,35036.9,35059.07,25204.52,28527.55,13242.87,8462.48
1389766.0015,-911.33,13293.89,35166.27,35203.79,25339.56,28585.1,12815.62,8580.02
1389766.0035,1682.33,13552.86,35245.99,35317.09,25344.76,28768.59,13130.57,8580.3
1389766.0055,4623.13,14231.73,35242.28,35341.7,25258.45,28940.49,13816.84,8505.06
1389766.0075,7376.72,15102.53,35171.56,35302.26,25106.72,29071.48,14636.18,8371.35
1389766.0095,8143.71,15699.29,35051.64,35195.64,24960.66,29074.34,15158.08,8232.55
1389766.0115,6854.92,15783.65,34957.32,35093.03,24900.53,28965.19,15169.67,8172.32
1389766.0135,3210.31,15144.64,34926.37,35021.31,24969.96,28749.71,14501.76,8232.4
1389766.0155,-247.67,14107.71,34990.98,35043.15,25134.47,28570.51,13521.48,8389.95
1389766.0175,-1297.86,13376.05,35118.3,35163.65,25294.35,28553.3,12885.14,8549.26
1389766.0195,698.95,13397.79,35228.83,35295.73,25350.48,28711.94,12981.42,8604.34
1389766.0215,3602.31,13970.0,35250.81,35344.41,25290.83,28890.47,13575.17,8550.45
1389766.0235,6601.38,14814.43,35209.76,35335.5,25164.03,29046.83,14384.7,8427.0
1389766.0255,8119.97,15552.81,35097.41,35235.08,25009.11,29094.37,15053.8,8278.08
1389766.0275,7559.35,15823.18,34983.31,35114.24,24907.02,29028.71,15257.03,8187.01
1389766.0295,4591.51,15436.75,34921.51,35015.06,24925.66,28844.88,14810.42,8205.18
1389766.0315,710.06,14452.98,34955.17,34995.37,25068.95,28640.32,13852.31,8341.6
1389766.0335,-1295.04,13548.42,35066.75,35084.82,25236.99,28557.45,13039.11,8490.94
1389766.0355,-218.68,13291.74,35193.54,35236.03,25334.79,28652.39,12873.79,8582.97
1389766.0375,2623.99,13740.54,35256.68,35334.31,25320.58,28844.74,13362.17,8577.25
1389766.0395,5657.77,14516.98,35244.66,35354.28,25230.79,29018.07,14109.23,8482.89
1389766.0415,7881.59,15350.15,35143.47,35274.56,25071.39,29101.09,14856.01,8321.33
1389766.0435,7982.16,15785.36,35014.68,35143.81,24939.25,29059.51,15223.03,8202.22
1389766.0455,5862.62,15655.76,34929.9,35041.48,24903.49,28916.36,15033.29,8181.53
1389766.0475,1916.69,14815.19,34929.57,34999.9,25004.34,28711.13,14195.16,8280.56
1389766.0495,-912.24,13810.73,35024.12,35062.36,25181.34,28566.27,13265.95,8440.69
1389766.0515,-918.01,13286.64,35161.88,35204.84,25329.02,28604.7,12834.5,8570.91
1389766.0535,1643.56,13535.83,35247.85,35320.0,25349.29,28768.02,13135.29,8587.89
1389766.0555,4574.2,14196.97,35239.18,35340.03,25258.54,28927.47,13800.81,8504.73
1389766.0575,7330.08,15070.2,35170.56,35299.5,25109.25,29048.73,14617.73,8362.1
1389766.0595,8129.98,15675.93,35059.03,35189.82,24971.2,29055.65,15150.36,8230.35
1389766.0615,6862.36,15772.06,34966.0,35072.62,24905.97,28951.84,15168.1,8168.17
1389766.0635,3246.12,15143.68,34933.38,34992.51,24973.2,28735.78,14503.67,8231.21
1389766.0655,-223.59,14115.1,34997.09,35024.46,25137.24,28564.36,13531.35,8380.8
1389766.0675,-1313.31,13370.32,35128.79,35156.73,25299.46,28547.48,12884.24,8533.34
1389766.0695,661.09,13384.92,35236.79,35302.69,25354.29,28697.78,12970.74,8587.46
1389766.0715,3552.1,13944.2,35254.53,35346.99,25292.54,28876.69,13552.38,8529.04
1389766.0735,6560.85,14789.49,35212.0,35317.57,25161.84,29029.99,14356.52,8399.58
1389766.0755,8092.83,15524.29,35102.18,35215.14,25003.44,29075.67,15016.84,8249.05
1389766.0775,7570.08,15807.58,34988.12,35093.5,24901.2,29002.34,15225.36,8155.25
1389766.0795,4625.27,15429.45,34928.61,34995.85,24917.18,28814.13,14798.12,8163.88
1389766.0815,762.94,14473.87,34975.1,34997.23,25073.48,28618.72,13868.76,8309.32
1389766.0835,-1299.62,13558.63,35085.44,35092.74,25250.68,28542.67,13047.55,8486.03
1389766.0855,-245.0,13295.41,35200.03,35229.26,25342.28,28638.65,12864.54,8580.45
1389766.0875,2551.99,13717.37,35250.72,35307.03,25316.96,28826.29,13324.17,8560.85
1389766.0895,5582.48,14488.22,35225.16,35311.85,25205.81,28991.56,14068.94,8450.7
1389766.0915,7824.61,15328.84,35138.47,35243.9,25056.51,29081.01,14850.81,8299.4
1389766.0935,8000.28,15791.32,35026.51,35132.98,24938.54,29060.41,15247.25,8191.59
1389766.0955,5879.36,15659.38,34945.54,35033.18,24907.69,28919.13,15052.56,8169.37
1389766.0975,1980.78,14835.41,34948.54,35001.23,25020.46,28697.78,14206.65,8272.22
1389766.0995,-915.34,13823.65,35040.34,35068.23,25198.41,28559.21,13262.89,8442.36
