TimeStamp,P3,P4,F3,F4,FP1,I1,I2,FP2
1389827.9268,3220.56,13700.15,34426.6,34232.57,24680.52,28412.25,13413.86,8230.16
1389827.9288,3743.17,13780.12,34424.6,34225.47,24664.88,28441.91,13532.12,8203.6
1389827.9308,4094.03,13871.81,34414.96,34208.44,24644.9,28468.04,13641.31,8188.11
1389827.9328,4064.08,13916.54,34407.91,34201.58,24638.37,28459.36,13687.09,8192.97
1389827.9348,3641.75,13913.35,34402.04,34198.38,24639.66,28431.04,13658.53,8201.5
1389827.9368,2961.3,13810.83,34398.37,34203.58,24656.82,28393.27,13520.29,8217.29
1389827.9388,2562.33,13707.5,34405.09,34219.22,24677.95,28369.86,13386.3,8233.26
1389827.9408,2639.25,13671.16,34431.46,34249.98,24699.93,28390.32,13342.57,8254.72
1389827.9428,3067.21,13694.0,34436.09,34244.68,24694.02,28415.16,13381.77,8250.48
1389827.9448,3567.31,13749.36,34430.22,34233.53,24676.33,28440.1,13474.42,8234.84
1389827.9468,4014.3,13838.01,34416.58,34215.17,24647.95,28456.88,13599.49,8209.13
1389827.9488,4099.89,13892.46,34401.18,34193.04,24632.36,28469.52,13691.57,8195.59
1389827.9508,3834.39,13916.4,34398.94,34196.33,24633.84,28452.78,13695.67,8199.36
1389827.9528,3183.75,13847.35,34405.57,34206.92,24654.44,28412.77,13582.23,8216.05
1389827.9548,2678.92,13750.41,34426.5,34235.62,24688.1,28393.75,13444.14,8244.09
1389827.9568,2543.5,13659.76,34426.93,34230.9,24692.97,28372.77,13333.13,8233.5
1389827.9588,2895.02,13653.23,34423.59,34220.03,24686.96,28388.12,13340.62,8228.68
1389827.9608,3384.3,13713.31,34436.04,34221.7,24686.05,28426.13,13438.04,8243.23
1389827.9628,3897.14,13804.34,34423.16,34206.35,24656.54,28442.15,13564.06,8222.06
1389827.9648,4089.4,13865.9,34399.7,34178.4,24631.84,28449.63,13661.67,8196.4
1389827.9668,3972.72,13909.96,34394.55,34180.26,24631.55,28446.15,13702.35,8194.88
1389827.9688,3397.61,13863.33,34381.35,34176.88,24632.17,28405.1,13612.8,8196.55
1389827.9708,2787.07,13755.51,34389.4,34188.37,24651.82,28367.28,13462.45,8216.1
1389827.9728,2508.88,13665.87,34412.1,34210.4,24680.43,28356.56,13345.39,8242.75
1389827.9748,2765.27,13665.34,34441.43,34243.16,24698.21,28384.4,13335.42,8265.4
1389827.9768,3210.16,13701.06,34447.29,34245.92,24693.78,28419.16,13408.47,8260.11
1389827.9788,3746.46,13776.97,34439.14,34240.97,24675.66,28447.68,13530.49,8232.31
1389827.9808,4074.48,13861.09,34424.5,34223.37,24657.68,28465.56,13651.8,8209.8
1389827.9828,4075.91,13909.48,34410.15,34208.21,24642.57,28461.17,13709.93,8190.82
1389827.9848,3624.54,13895.32,34405.76,34198.34,24645.47,28426.32,13656.86,8188.39
1389827.9868,2982.19,13810.35,34415.01,34207.44,24665.84,28388.12,13526.73,8208.99
1389827.9888,2540.54,13696.58,34412.82,34208.16,24673.75,28354.7,13373.9,8218.0
1389827.9908,2614.26,13657.67,34421.02,34222.32,24681.76,28358.22,13312.25,8228.35
1389827.9928,3022.24,13679.65,34423.31,34224.8,24676.95,28384.64,13355.78,8228.83
1389827.9948,3562.83,13751.56,34425.31,34233.72,24670.37,28426.08,13470.08,8221.82
1389827.9968,4001.9,13847.64,34414.1,34219.41,24649.77,28459.36,13603.69,8203.08
1389827.9988,4109.29,13907.58,34398.85,34196.09,24633.46,28470.33,13692.86,8189.54
1389828.0008,3828.19,13922.79,34390.12,34184.75,24629.79,28453.64,13691.47,8186.63
1389828.0028,3201.63,13854.46,34391.69,34194.52,24644.33,28412.73,13583.57,8202.79
1389828.0048,2657.03,13744.98,34402.09,34213.26,24665.79,28364.23,13434.6,8225.68
1389828.0068,2554.42,13677.22,34427.84,34235.53,24687.1,28361.37,13336.23,8244.42
1389828.0088,2893.35,13683.75,34444.86,34241.87,24691.25,28386.88,13344.15,8247.33
1389828.0108,3399.09,13739.16,34453.63,34242.01,24689.63,28428.99,13443.28,8245.85
1389828.0128,3904.01,13827.85,34440.43,34223.99,24671.8,28463.32,13578.08,8225.97
1389828.0148,4109.53,13877.87,34403.95,34182.55,24636.65,28456.74,13663.63,8187.87
1389828.0168,3972.05,13912.58,34392.74,34179.02,24626.4,28448.63,13700.77,8177.33
1389828.0188,3418.78,13872.15,34389.93,34187.37,24634.55,28410.15,13618.85,8183.43
1389828.0208,2796.75,13763.86,34392.74,34199.15,24656.35,28364.47,13458.78,8204.75
1389828.0228,2514.79,13670.54,34413.72,34224.09,24684.19,28350.5,13333.89,8234.79
1389828.0248,2753.07,13668.16,34436.66,34244.11,24699.79,28373.05,13322.74,8254.82
1389828.0268,3199.77,13701.01,34440.95,34242.4,24694.83,28404.67,13389.68,8249.9
1389828.0288,3746.99,13788.18,34441.62,34233.76,24680.67,28448.63,13520.62,8229.64
1389828.0308,4094.08,13876.96,34435.42,34219.84,24663.17,28483.3,13653.33,8213.66
1389828.0328,4093.03,13929.65,34417.3,34203.34,24644.09,28471.76,13711.26,8198.07
1389828.0348,3644.61,13907.29,34397.56,34193.09,24636.03,28436.28,13662.72,8191.01
1389828.0368,3001.83,13820.32,34400.51,34200.53,24653.34,28401.14,13536.6,8206.56
1389828.0388,2575.45,13721.18,34420.4,34225.85,24681.52,28388.07,13406.04,8233.98
1389828.0408,2654.51,13692.43,34440.0,34251.41,24701.07,28397.28,13352.87,8254.1
1389828.0428,3054.52,13715.65,34452.2,34256.7,24704.51,28426.41,13384.25,8254.2
1389828.0448,3587.96,13783.98,34451.3,34245.3,24688.2,28459.31,13494.11,8230.11
1389828.0468,4016.45,13874.2,34445.39,34240.35,24670.99,28484.3,13626.86,8213.38
1389828.0488,4147.2,13935.76,34428.93,34228.14,24647.67,28488.93,13720.47,8199.17
1389828.0508,3836.49,13922.41,34394.27,34206.78,24623.3,28447.2,13692.48,8181.14
1389828.0528,3220.89,13856.13,34392.74,34206.87,24639.04,28401.19,13568.83,8199.55
1389828.0548,2650.4,13738.16,34403.23,34213.36,24666.07,28371.34,13403.27,8225.01
1389828.0568,2557.95,13676.98,34423.78,34231.48,24686.24,28360.8,13317.97,8244.85
1389828.0588,2869.99,13676.6,34431.84,34231.33,24684.53,28370.48,13335.18,8246.52
1389828.0608,3379.06,13731.48,34430.65,34228.28,24673.51,28411.49,13433.27,8232.55
1389828.0628,3875.64,13819.93,34430.65,34220.37,24662.02,28459.55,13573.55,8219.0
1389828.0648,4137.23,13902.57,34423.88,34207.49,24646.24,28484.68,13689.71,8203.22
1389828.0668,3994.51,13937.05,34417.54,34200.86,24645.19,28478.82,13730.0,8197.45
1389828.0688,3467.85,13901.57,34409.96,34206.11,24654.92,28440.96,13645.22,8209.09
1389828.0708,2816.73,13782.98,34407.29,34213.59,24673.18,28365.28,13472.18,8224.82
1389828.0728,2540.3,13686.9,34414.92,34226.61,24687.01,28343.25,13346.29,8238.84
1389828.0748,2736.43,13669.92,34434.27,34246.16,24699.02,28368.38,13322.07,8251.14
1389828.0768,3211.78,13708.78,34444.72,34250.64,24695.4,28416.4,13394.26,8246.57
1389828.0788,3730.3,13782.31,34439.38,34239.87,24676.37,28460.27,13517.76,8226.35
1389828.0808,4097.03,13871.86,34429.08,34229.62,24652.25,28487.5,13642.69,8202.51
1389828.0828,4086.54,13928.18,34425.31,34223.75,24644.81,28499.51,13718.42,8196.74
1389828.0848,3685.76,13920.55,34422.02,34219.89,24648.81,28450.68,13674.55,8201.55
1389828.0868,3009.89,13817.5,34415.73,34215.45,24663.21,28374.87,13518.05,8210.95
1389828.0888,2583.46,13706.92,34418.73,34224.94,24684.1,28339.01,13369.75,8234.6
1389828.0908,2611.59,13655.47,34422.45,34234.1,24686.72,28346.64,13304.24,8242.27
1389828.0928,3029.39,13681.17,34426.07,34240.15,24681.05,28382.69,13349.96,8240.99
1389828.0948,3550.91,13757.14,34432.8,34239.3,24676.28,28426.94,13467.12,8234.26
1389828.0968,4003.57,13850.88,34424.69,34223.27,24654.68,28461.6,13600.54,8212.76
1389828.0988,4113.01,13906.67,34403.71,34198.15,24631.46,28467.71,13689.66,8188.11
1389828.1008,3851.56,13923.69,34393.36,34195.0,24625.97,28440.38,13689.81,8181.0
1389828.1028,3217.79,13862.56,34391.31,34203.15,24639.23,28400.62,13582.61,8195.59
1389828.1048,2671.0,13744.69,34399.56,34217.12,24665.88,28370.53,13429.12,8218.67
1389828.1068,2558.42,13682.65,34427.93,34241.16,24695.83,28380.45,13344.48,8245.28
1389828.1088,2899.41,13698.25,34455.21,34261.28,24713.81,28411.77,13362.08,8262.3
1389828.1108,3382.78,13748.79,34451.49,34258.32,24701.55,28431.32,13444.95,8250.86
1389828.1128,3890.13,13833.52,34444.38,34248.98,24686.72,28456.36,13570.45,8233.74
1389828.1148,4122.69,13895.56,34415.15,34211.93,24652.05,28464.03,13669.97,8201.03
1389828.1168,3983.83,13914.87,34394.51,34190.28,24629.83,28446.49,13698.29,8184.58
1389828.1188,3456.97,13885.64,34393.84,34191.37,24633.08,28409.72,13622.81,8193.4
1389828.1208,2827.93,13783.89,34412.72,34205.82,24664.12,28380.49,13476.42,8223.82
1389828.1228,2542.93,13699.25,34427.69,34223.8,24689.82,28361.71,13355.3,8245.14
1389828.1248,2727.32,13672.16,34436.71,34236.24,24697.69,28373.96,13326.07,8250.95
1389828.1268,3198.15,13711.12,34438.33,34236.63,24686.29,28409.77,13399.65,8240.99
1389828.1288,3719.71,13784.17,34432.42,34221.7,24665.17,28440.15,13516.05,8223.44
1389828.1308,4085.73,13877.39,34424.74,34209.21,24646.91,28463.08,13645.41,8202.7
1389828.1328,4081.2,13923.17,34412.34,34206.11,24638.27,28471.09,13711.93,8191.06
1389828.1348,3680.85,13912.25,34400.42,34198.1,24632.03,28434.95,13666.54,8180.19
1389828.1368,3011.61,13820.55,34401.09,34205.97,24655.49,28397.8,13530.78,8198.79
1389828.1388,2593.04,13725.23,34417.82,34228.23,24684.53,28383.02,13396.88,8228.26
1389828.1408,2620.51,13675.36,34433.42,34247.21,24698.5,28385.5,13332.8,8243.85
1389828.1428,3040.55,13699.25,34442.57,34253.84,24697.83,28410.06,13373.76,8244.56
1389828.1448,3535.27,13754.85,34437.52,34239.39,24675.18,28443.96,13472.22,8227.02
1389828.1468,4004.81,13853.98,34432.56,34232.86,24654.2,28479.29,13608.5,8201.08
1389828.1488,4113.39,13912.3,34416.25,34213.07,24638.27,28489.83,13699.49,8183.43
1389828.1508,3859.71,13921.31,34390.45,34180.84,24619.87,28445.39,13688.9,8170.99
1389828.1528,3202.3,13843.35,34378.44,34165.1,24627.4,28392.84,13568.78,8183.15
1389828.1548,2680.45,13744.69,34393.84,34190.42,24660.16,28366.81,13424.11,8219.15
1389828.1568,2550.41,13687.8,34425.79,34225.42,24699.6,28374.25,13339.43,8251.72
1389828.1588,2895.26,13699.29,34439.38,34241.11,24703.84,28403.67,13358.79,8256.15
1389828.1608,3367.14,13749.7,34444.1,34246.93,24694.68,28442.43,13448.81,8250.29
1389828.1628,3890.18,13838.2,34439.14,34235.86,24674.56,28476.53,13574.55,8226.68
1389828.1648,4123.74,13910.44,34429.7,34216.26,24660.73,28497.75,13686.8,8203.17
1389828.1668,4010.96,13934.95,34408.91,34195.43,24641.18,28470.23,13720.08,8180.05
1389828.1688,3456.5,13895.94,34399.85,34195.09,24645.76,28426.13,13640.45,8187.53
1389828.1708,2846.72,13795.9,34408.38,34215.36,24665.79,28389.98,13494.78,8212.57
1389828.1728,2531.86,13697.29,34422.26,34234.77,24688.87,28372.01,13369.37,8232.59
1389828.1748,2727.27,13666.54,34427.22,34243.87,24683.76,28374.87,13336.14,8234.07
1389828.1768,3173.21,13702.58,34434.47,34236.91,24680.57,28412.11,13412.19,8235.07
1389828.1788,3724.29,13783.27,34437.61,34226.42,24667.84,28453.5,13536.12,8220.24
1389828.1808,4065.7,13867.28,34425.98,34203.49,24649.72,28482.25,13663.1,8198.88
1389828.1828,4091.88,13921.55,34417.63,34195.47,24642.23,28486.16,13732.01,8195.88
1389828.1848,3679.28,13916.64,34412.1,34199.19,24644.23,28444.15,13681.03,8201.84
1389828.1868,3023.1,13817.46,34403.61,34198.34,24655.35,28387.93,13519.15,8215.71
1389828.1888,2565.34,13699.06,34404.81,34203.3,24673.66,28359.32,13359.55,8231.35
1389828.1908,2614.07,13656.05,34420.92,34221.61,24689.39,28354.12,13310.96,8244.18
1389828.1928,3004.89,13673.74,34425.93,34217.84,24679.57,28382.54,13356.5,8236.74
1389828.1948,3525.31,13736.77,34431.18,34220.79,24670.89,28430.7,13457.16,8225.11
1389828.1968,3975.44,13825.8,34422.69,34210.45,24655.15,28462.75,13579.8,8210.23
1389828.1988,4110.1,13883.16,34405.14,34198.77,24637.75,28460.08,13666.2,8198.02
1389828.2008,3859.43,13910.68,34396.84,34200.72,24633.12,28427.56,13676.07,8194.88
1389828.2028,3244.83,13851.45,34398.42,34205.58,24645.38,28389.46,13572.07,8207.56
1389828.2048,2699.33,13751.17,34416.01,34217.31,24679.33,28373.01,13431.6,8235.22
1389828.2068,2562.14,13676.22,34433.56,34235.05,24701.6,28376.68,13333.37,8254.48
1389828.2088,2865.51,13668.59,34436.85,34240.73,24696.21,28397.13,13336.8,8246.33
1389828.2108,3346.11,13716.17,34441.57,34245.73,24688.39,28437.24,13425.4,8235.88
1389828.2128,3858.52,13802.67,34427.93,34227.04,24662.88,28459.5,13548.76,8211.52
1389828.2148,4093.84,13870.48,34406.71,34204.87,24635.84,28463.84,13653.95,8183.67
1389828.2168,3991.22,13911.77,34393.03,34191.56,24626.88,28440.96,13695.05,8173.28
1389828.2188,3470.61,13892.13,34398.66,34194.28,24645.47,28407.86,13628.68,8195.35
1389828.2208,2847.0,13787.94,34396.94,34198.1,24661.64,28370.34,13477.85,8213.43
1389828.2228,2532.48,13688.9,34404.81,34212.07,24681.0,28349.93,13353.54,8233.98
1389828.2248,2733.85,13677.65,34420.69,34229.23,24689.11,28366.95,13328.98,8245.18
1389828.2268,3170.82,13711.41,34429.13,34230.43,24685.15,28404.24,13395.84,8241.51
1389828.2288,3708.08,13793.23,34436.33,34224.71,24674.56,28446.63,13516.57,8228.3
1389828.2308,4061.13,13871.48,34426.74,34206.63,24656.78,28475.62,13641.12,8209.28
1389828.2328,4097.13,13923.98,34411.63,34198.34,24639.8,28481.34,13716.99,8193.68
1389828.2348,3698.49,13923.31,34403.71,34206.11,24644.76,28459.6,13684.89,8196.74
1389828.2368,3057.53,13835.34,34400.18,34213.4,24655.25,28420.4,13551.14,8209.32
1389828.2388,2595.09,13720.13,34413.06,34234.29,24679.0,28394.08,13416.1,8231.16
1389828.2408,2635.43,13672.97,34427.12,34247.78,24687.72,28385.93,13349.87,8230.64
1389828.2428,3012.09,13683.46,34435.8,34243.06,24687.77,28400.23,13379.96,8226.06
1389828.2448,3546.52,13755.18,34444.48,34244.88,24684.67,28432.52,13470.89,8228.16
1389828.2468,3981.97,13838.91,34435.09,34234.48,24659.06,28458.55,13597.39,8213.0
1389828.2488,4130.75,13905.0,34419.11,34213.93,24637.61,28473.0,13701.49,8194.16
1389828.2508,3871.49,13918.83,34405.38,34194.38,24631.55,28459.55,13704.68,8189.82
1389828.2528,3271.58,13859.85,34398.51,34195.38,24640.52,28419.78,13590.43,8198.41
1389828.2548,2697.99,13749.41,34407.19,34217.41,24666.65,28382.97,13428.93,8221.1
1389828.2568,2573.44,13686.37,34428.65,34243.25,24688.87,28378.39,13340.28,8243.13
1389828.2588,2853.2,13678.36,34435.47,34241.06,24688.53,28386.31,13336.61,8246.33
1389828.2608,3353.26,13736.3,34450.68,34244.21,24684.53,28420.5,13428.17,8243.85
1389828.2628,3847.69,13819.27,34453.01,34236.39,24669.94,28452.59,13558.96,8226.59
1389828.2648,4116.11,13897.33,34436.33,34216.88,24649.43,28469.47,13672.59,8204.51
1389828.2668,4005.86,13941.67,34423.64,34216.12,24647.52,28474.62,13719.08,8208.28
1389828.2688,3509.52,13913.06,34414.68,34216.07,24650.91,28440.24,13643.41,8216.19
1389828.2708,2844.72,13794.66,34403.85,34209.88,24656.2,28390.6,13485.58,8218.53
1389828.2728,2545.93,13698.29,34411.15,34225.52,24672.51,28369.95,13358.17,8228.26
1389828.2748,2705.29,13668.4,34419.78,34234.67,24682.0,28383.12,13327.93,8227.64
1389828.2768,3169.68,13703.16,34423.16,34235.24,24677.61,28413.54,13391.93,8227.54
1389828.2788,3675.22,13771.49,34412.96,34215.74,24654.53,28437.33,13497.93,8212.47
1389828.2808,4066.04,13869.05,34415.54,34211.12,24644.09,28471.14,13628.91,8200.22
1389828.2828,4084.73,13921.31,34407.14,34196.95,24636.65,28481.15,13705.06,8192.87
1389828.2848,3721.14,13923.79,34402.28,34195.57,24640.37,28461.36,13678.98,8198.36
1389828.2868,3062.25,13835.24,34403.19,34203.2,24659.3,28418.45,13543.32,8212.23
1389828.2888,2612.16,13718.75,34412.29,34213.36,24680.62,28382.59,13393.17,8228.35
1389828.2908,2621.32,13668.25,34427.6,34227.85,24691.68,28384.4,13325.93,8236.46
1389828.2928,3021.0,13689.9,34439.33,34235.2,24690.92,28414.11,13365.56,8236.31
1389828.2948,3525.07,13753.56,34443.1,34227.9,24678.38,28446.96,13468.31,8224.58
1389828.2968,3985.83,13839.06,34430.46,34214.88,24654.58,28472.95,13591.96,8203.46
1389828.2988,4127.55,13904.76,34414.39,34203.25,24637.56,28480.1,13690.09,8189.49
1389828.3008,3893.52,13920.55,34397.8,34199.58,24626.07,28459.31,13697.24,8175.09
1389828.3028,3273.11,13859.08,34383.01,34191.61,24628.45,28416.92,13590.72,8169.89
1389828.3048,2706.77,13749.17,34389.21,34196.71,24650.15,28381.26,13447.81,8187.77
1389828.3068,2552.32,13681.6,34406.0,34220.84,24670.99,28374.15,13358.4,8208.42
1389828.3088,2853.06,13677.6,34422.64,34239.34,24679.28,28394.89,13360.31,8216.33
1389828.3108,3335.86,13723.04,34427.07,34235.29,24669.84,28429.99,13420.44,8207.37
1389828.3128,3842.74,13804.34,34422.07,34220.84,24650.86,28463.89,13533.83,8193.45
1389828.3148,4116.77,13891.56,34414.34,34206.06,24635.51,28489.55,13665.82,8190.39
1389828.3168,4011.77,13917.59,34396.37,34184.27,24621.68,28473.95,13703.06,8180.52
1389828.3188,3511.1,13891.94,34390.22,34187.03,24629.26,28428.32,13624.72,8182.19
1389828.3208,2868.08,13786.13,34395.32,34195.24,24654.11,28384.69,13475.13,8201.41
1389828.3228,2563.0,13698.01,34412.34,34213.02,24680.67,28373.29,13362.79,8227.06
1389828.3248,2729.94,13680.03,34439.52,34234.34,24702.98,28398.9,13341.29,8254.48
1389828.3268,3188.42,13721.66,34451.16,34235.86,24700.79,28433.47,13410.76,8254.58
1389828.3288,3707.17,13803.87,34455.4,34240.68,24695.11,28466.23,13538.98,8245.8
1389828.3308,4085.78,13878.97,34427.22,34212.5,24660.26,28477.86,13650.71,8198.17
1389828.3328,4080.11,13902.71,34392.84,34175.21,24626.64,28464.85,13694.05,8166.22
1389828.3348,3715.85,13903.09,34379.68,34171.2,24620.54,28433.9,13663.96,8166.46
1389828.3368,3048.94,13816.17,34381.01,34179.69,24640.99,28393.61,13531.5,8193.4
1389828.3388,2610.4,13714.89,34397.03,34198.57,24663.26,28371.62,13393.07,8218.0
1389828.3408,2602.53,13662.63,34416.92,34216.79,24680.52,28369.62,13320.54,8233.6
1389828.3428,3015.52,13685.75,34432.37,34224.99,24684.0,28407.96,13367.23,8234.31
1389828.3448,3511.62,13747.69,34443.43,34223.99,24682.29,28452.69,13477.04,8228.45
1389828.3468,4004.15,13851.93,34443.33,34216.12,24664.83,28491.26,13620.52,8209.13
1389828.3488,4139.23,13916.88,34424.88,34196.91,24638.8,28503.76,13718.23,8186.15
1389828.3508,3919.13,13931.85,34398.85,34177.88,24615.77,28486.64,13734.49,8165.65
1389828.3528,3282.93,13860.13,34384.3,34176.64,24619.15,28439.81,13631.63,8171.37
1389828.3548,2725.7,13750.08,34393.17,34194.76,24642.33,28393.89,13472.61,8197.02
1389828.3568,2535.96,13669.83,34412.39,34223.94,24673.99,28355.79,13341.0,8231.78
1389828.3588,2841.76,13663.63,34416.39,34237.53,24682.48,28356.22,13315.97,8239.75
1389828.3608,3312.73,13715.32,34423.98,34239.49,24679.76,28403.81,13409.04,8237.32
1389828.3628,3853.13,13814.26,34426.22,34234.15,24663.98,28452.3,13557.86,8224.49
1389828.3648,4108.1,13883.31,34405.71,34203.34,24636.84,28469.04,13675.83,8197.98
1389828.3668,4046.63,13928.75,34398.7,34196.05,24629.5,28472.38,13732.05,8190.11
1389828.3688,3525.26,13900.42,34389.45,34200.48,24634.89,28442.34,13654.71,8196.21
1389828.3708,2896.55,13801.05,34393.27,34222.65,24663.17,28405.38,13485.96,8216.67
1389828.3728,2564.96,13725.47,34431.08,34268.67,24715.24,28401.62,13373.71,8252.48
1389828.3748,2747.15,13706.3,34454.49,34293.66,24734.74,28405.77,13353.78,8271.89
1389828.3768,3151.32,13702.87,34432.89,34262.04,24703.36,28402.95,13386.39,8247.76
1389828.3788,3684.0,13770.39,34427.6,34245.78,24684.34,28429.85,13497.54,8232.55
1389828.3808,4052.26,13861.37,34422.07,34229.62,24668.12,28465.08,13630.92,8223.06
1389828.3828,4114.77,13930.08,34421.88,34224.47,24667.12,28495.03,13725.09,8229.69
1389828.3848,3737.74,13930.47,34414.25,34215.55,24666.12,28475.19,13694.72,8228.02
1389828.3868,3078.75,13833.91,34408.81,34206.49,24671.61,28426.32,13545.71,8235.41
1389828.3888,2611.64,13730.77,34429.13,34225.61,24703.89,28396.56,13400.84,8271.6
1389828.3908,2618.84,13679.27,34443.57,34245.59,24726.58,28380.97,13327.31,8287.14
1389828.3928,2995.87,13689.71,34446.2,34247.35,24725.34,28392.32,13363.74,8276.46
1389828.3948,3505.23,13749.27,34446.01,34244.21,24713.28,28415.97,13462.02,8257.39
1389828.3968,3980.92,13848.26,34446.67,34240.68,24698.02,28464.61,13595.63,8244.18
1389828.3988,4132.27,13908.29,34431.41,34219.22,24677.28,28472.86,13687.71,8230.5
1389828.4008,3901.77,13926.22,34413.48,34209.78,24662.31,28457.41,13697.67,8224.97
1389828.4028,3296.04,13869.05,34410.43,34217.31,24672.42,28413.73,13597.35,8236.55
1389828.4048,2731.04,13771.68,34424.79,34235.53,24701.26,28386.26,13453.2,8266.59
1389828.4072,2551.94,13686.94,34433.99,34247.78,24713.42,28373.67,13340.9,8281.14
1389828.4092,2845.67,13682.99,34438.9,34255.17,24715.14,28392.51,13338.62,8280.85
1389828.4112,3318.83,13725.28,34444.05,34250.84,24711.99,28425.84,13419.3,8273.7
1389828.4132,3850.75,13820.89,34448.06,34250.55,24705.03,28467.32,13556.91,8263.35
1389828.4152,4110.1,13892.03,34433.7,34239.39,24686.53,28479.44,13670.26,8244.71
1389828.4172,4030.66,13934.52,34418.63,34232.57,24674.99,28466.13,13714.98,8235.88
1389828.4192,3521.25,13902.48,34409.34,34224.94,24673.13,28424.12,13643.08,8238.17
1389828.4212,2888.73,13803.29,34410.43,34223.27,24686.58,28385.21,13498.26,8248.19
1389828.4232,2534.49,13697.1,34423.4,34236.15,24702.93,28367.24,13361.93,8258.53
1389828.4252,2704.33,13676.79,34445.29,34255.22,24714.47,28376.82,13326.84,8268.26
1389828.4272,3137.78,13707.11,34459.12,34261.47,24718.96,28416.06,13387.82,8275.61
1389828.4292,3680.13,13786.32,34462.65,34259.8,24707.7,28454.35,13510.18,8267.93
1389828.4312,4062.18,13875.68,34454.73,34242.54,24686.96,28484.68,13645.6,8248.66
1389828.4332,4129.31,13939.0,34442.24,34229.47,24675.66,28498.32,13734.87,8235.74
1389828.4352,3743.22,13933.14,34428.65,34222.08,24669.13,28466.66,13697.2,8227.25
1389828.4372,3109.26,13857.22,34431.75,34233.62,24691.3,28427.7,13557.1,8247.76
1389828.4388,2615.36,13736.49,34433.94,34243.87,24712.18,28382.73,13386.06,8269.93
1389828.4408,2630.38,13692.91,34448.15,34272.05,24728.11,28382.16,13317.87,8283.0
1389828.4428,2999.26,13712.46,34467.42,34289.98,24735.88,28424.89,13362.65,8287.38
1389828.4448,3526.45,13778.4,34468.7,34288.84,24725.34,28454.5,13466.84,8273.65
1389828.4468,3976.25,13857.32,34453.68,34266.57,24695.11,28472.71,13591.15,8246.61
1389828.4488,4148.39,13924.84,34433.42,34239.73,24671.37,28478.91,13689.61,8232.02
1389828.4508,3903.72,13937.52,34409.81,34215.5,24657.63,28456.41,13696.34,8221.91
1389828.4528,3310.44,13875.06,34393.84,34202.29,24655.58,28411.49,13588.86,8218.91
1389828.4548,2718.83,13765.0,34402.71,34222.08,24678.47,28372.43,13437.42,8239.89
1389828.4568,2554.04,13693.19,34424.5,34258.23,24701.69,28366.95,13335.99,8261.16
1389828.4588,2820.49,13681.99,34440.43,34273.68,24710.71,28385.88,13340.86,8268.31
1389828.4608,3316.93,13728.57,34442.1,34267.48,24703.22,28413.87,13426.73,8263.16
1389828.4628,3819.75,13810.54,34434.61,34249.74,24683.86,28445.58,13545.18,8248.81
1389828.4648,4116.2,13891.27,34420.92,34224.47,24661.45,28473.33,13652.76,8229.64
1389828.4668,4023.98,13933.56,34410.91,34207.82,24652.05,28481.3,13713.36,8219.2
1389828.4688,3561.07,13924.79,34415.68,34213.17,24666.03,28453.02,13671.07,8230.59
1389828.4708,2915.34,13836.58,34430.22,34239.11,24699.93,28420.02,13541.56,8259.54
1389828.4728,2591.75,13744.26,34447.44,34264.66,24722.96,28405.86,13409.09,8281.9
1389828.4748,2728.13,13712.36,34459.07,34275.73,24734.31,28421.6,13368.66,8290.58
1389828.4768,3181.03,13745.26,34461.93,34274.06,24725.34,28455.31,13433.27,8283.38
1389828.4788,3693.34,13819.22,34461.79,34266.38,24712.23,28492.12,13550.43,8269.22
1389828.4808,4098.27,13913.68,34457.16,34259.7,24697.02,28522.07,13682.18,8251.72
1389828.4828,4135.51,13961.75,34440.57,34238.49,24676.9,28524.12,13754.56,8230.11
1389828.4848,3777.03,13954.55,34423.74,34227.28,24664.12,28491.88,13717.22,8214.9
1389828.4868,3110.79,13862.8,34410.48,34228.23,24668.55,28439.05,13577.51,8223.77
1389828.4888,2650.21,13757.66,34424.98,34250.93,24698.12,28409.63,13430.45,8254.72
1389828.4908,2635.67,13713.65,34449.3,34271.63,24723.39,28414.63,13364.03,8277.56
1389828.4928,3026.06,13735.06,34470.75,34294.42,24738.27,28453.54,13411.62,8291.2
1389828.4948,3535.18,13803.91,34481.67,34296.76,24738.22,28497.99,13523.96,8298.02
1389828.4968,3998.09,13874.29,34460.74,34262.8,24705.13,28505.95,13634.35,8271.74
1389828.4988,4141.86,13921.93,34426.84,34219.79,24670.17,28493.79,13716.46,8240.8
1389828.5008,3928.33,13939.95,34408.29,34208.68,24655.58,28472.05,13721.32,8230.88
1389828.5028,3330.71,13885.02,34397.7,34213.79,24663.26,28424.89,13617.99,8237.89
1389828.5048,2747.58,13773.44,34407.33,34230.76,24686.86,28387.12,13461.88,8257.72
1389828.5068,2558.8,13696.82,34423.98,34249.26,24703.89,28371.05,13346.01,8272.98
1389828.5088,2839.95,13686.37,34438.33,34259.23,24709.47,28383.02,13338.33,8276.46
1389828.5108,3319.36,13730.72,34443.19,34255.7,24702.79,28417.07,13416.86,8265.64
1389828.5128,3834.44,13817.98,34447.34,34250.26,24696.73,28458.03,13543.66,8259.01
1389828.5148,4132.56,13901.95,34435.66,34232.72,24675.32,28466.32,13660.1,8237.08
1389828.5168,4045.2,13935.85,34413.53,34216.74,24660.54,28441.48,13704.44,8218.58
1389828.5188,3564.45,13916.45,34402.57,34215.6,24656.25,28407.43,13643.7,8221.53
1389828.5208,2906.85,13813.16,34405.86,34220.75,24672.42,28370.1,13492.49,8240.89
1389828.5228,2586.22,13731.39,34425.41,34245.02,24698.55,28368.38,13375.28,8266.31
1389828.5248,2725.6,13710.21,34450.73,34267.76,24721.82,28396.04,13344.48,8283.47
1389828.5268,3171.78,13746.17,34462.5,34268.0,24721.34,28432.23,13405.28,8276.51
1389828.5288,3673.79,13809.87,34457.12,34256.61,24704.98,28451.02,13511.47,8258.3
1389828.5308,4077.58,13897.33,34441.05,34239.25,24683.86,28463.27,13638.59,8237.17
1389828.5328,4108.91,13944.15,34425.31,34222.18,24671.22,28470.57,13721.42,8224.63
1389828.5348,3785.18,13956.83,34421.07,34224.66,24669.94,28454.97,13713.08,8225.82
1389828.5368,3106.5,13855.6,34407.57,34221.13,24668.32,28394.18,13557.67,8230.97
1389828.5388,2636.96,13743.45,34413.15,34240.3,24683.14,28359.99,13403.56,8250.29
1389828.5408,2597.52,13693.05,34441.19,34275.01,24709.23,28364.9,13331.8,8275.41
1389828.5428,2998.78,13716.65,34460.5,34288.74,24714.85,28391.41,13369.28,8275.7
1389828.5448,3487.02,13770.15,34459.93,34277.73,24704.03,28428.13,13465.69,8263.78
1389828.5468,3982.69,13864.66,34452.25,34255.22,24681.48,28467.04,13599.78,8247.47
1389828.5488,4133.51,13919.31,34433.7,34223.75,24664.6,28486.26,13692.71,8230.54
1389828.5508,3956.51,13946.73,34419.11,34219.13,24658.97,28474.24,13713.31,8225.87
1389828.5528,3349.26,13896.37,34422.69,34227.8,24677.57,28436.43,13618.42,8247.42
1389828.5548,2786.06,13796.28,34434.23,34246.26,24707.08,28404.43,13471.41,8278.56
1389828.5568,2571.2,13713.65,34450.11,34270.86,24728.92,28384.12,13358.59,8296.78
1389828.5588,2856.25,13704.4,34459.07,34271.39,24727.97,28390.7,13350.92,8294.87
1389828.5608,3311.4,13746.55,34464.22,34270.2,24722.67,28430.47,13432.84,8288.19
1389828.5628,3856.28,13843.92,34468.46,34274.06,24715.14,28478.53,13571.31,8278.23
1389828.5648,4124.02,13910.49,34442.24,34248.79,24686.77,28485.68,13674.64,8251.62
1389828.5668,4046.58,13929.08,34407.29,34214.12,24655.39,28456.31,13700.06,8215.33
1389828.5688,3543.66,13907.72,34396.37,34209.3,24656.58,28416.83,13638.16,8213.85
1389828.5708,2921.39,13820.84,34402.85,34223.99,24679.81,28382.97,13501.46,8237.51
1389828.5728,2559.71,13725.09,34419.11,34240.39,24705.46,28368.33,13372.8,8262.44
1389828.5748,2708.72,13697.86,34437.23,34254.89,24716.09,28377.49,13331.56,8275.32
1389828.5768,3130.87,13724.71,34440.95,34249.83,24707.46,28406.1,13385.63,8267.69
1389828.5788,3669.69,13798.52,34441.62,34242.35,24688.72,28454.45,13501.98,8249.86
1389828.5808,4060.03,13891.51,34438.09,34233.29,24672.23,28489.35,13630.2,8233.98
1389828.5828,4126.12,13946.01,34430.7,34226.47,24664.69,28494.6,13707.31,8227.06
1389828.5848,3778.41,13953.35,34419.97,34226.9,24664.31,28447.73,13693.57,8227.97
1389828.5868,3132.96,13869.86,34417.16,34233.38,24674.94,28388.22,13567.64,8236.84
1389828.5888,2641.68,13763.43,34432.08,34264.28,24705.7,28372.01,13423.92,8259.44
1389828.5908,2629.42,13718.85,34458.36,34302.14,24732.21,28391.94,13357.78,8280.66
1389828.5928,2996.35,13733.63,34466.37,34306.96,24730.49,28417.88,13389.59,8266.97
1389828.5948,3490.5,13780.17,34458.55,34276.54,24710.37,28440.53,13476.04,8251.24
1389828.5968,3962.95,13864.19,34445.91,34244.11,24682.95,28462.32,13600.26,8241.32
1389828.5988,4141.24,13925.22,34434.51,34224.71,24665.55,28475.0,13694.24,8234.93
1389828.6008,3950.98,13951.64,34421.69,34217.27,24654.06,28462.94,13707.5,8229.45
1389828.6028,3345.87,13887.36,34403.04,34206.59,24655.82,28412.77,13602.4,8225.44
1389828.6048,2766.18,13787.8,34415.92,34222.8,24687.77,28385.69,13463.31,8254.96
1389828.6068,2575.3,13718.99,34444.05,34257.85,24720.62,28385.12,13367.94,8291.34
1389828.6088,2847.39,13713.55,34455.78,34273.29,24725.2,28400.23,13362.17,8294.73
1389828.6108,3318.12,13758.8,34464.6,34283.07,24728.54,28436.62,13439.28,8294.15
1389828.6128,3861.19,13852.41,34467.42,34277.44,24718.24,28481.77,13569.98,8281.99
1389828.6148,4127.55,13908.53,34432.08,34233.96,24677.18,28493.84,13666.68,8241.61
1389828.6168,4068.52,13946.25,34405.62,34215.12,24656.58,28486.06,13715.36,8222.72
1389828.6188,3580.67,13924.41,34399.18,34213.79,24663.69,28450.06,13652.28,8228.02
1389828.6208,2947.52,13831.62,34405.24,34220.46,24685.29,28404.33,13508.51,8244.23
1389828.6228,2569.68,13727.95,34423.4,34242.82,24713.09,28384.21,13371.18,8270.93
1389828.6248,2714.78,13702.73,34438.95,34264.23,24725.82,28385.12,13326.98,8284.33
1389828.6268,3128.05,13723.09,34445.1,34262.47,24715.52,28384.88,13380.67,8276.08
1389828.6288,3666.88,13796.57,34442.38,34255.32,24694.02,28419.78,13496.45,8259.25
1389828.6308,4061.6,13882.97,34434.51,34241.49,24671.32,28455.88,13624.15,8242.37
1389828.6328,4158.07,13949.44,34428.74,34236.15,24655.39,28477.77,13716.79,8229.92
1389828.6348,3804.11,13953.4,34415.06,34230.38,24647.91,28456.41,13699.1,8222.82
1389828.6368,3177.79,13890.03,34419.68,34249.12,24671.03,28428.84,13586.09,8241.94
1389828.6388,2653.07,13763.0,34422.16,34254.65,24697.21,28387.65,13418.96,8255.53
1389828.6408,2624.7,13704.78,34438.04,34273.68,24723.25,28380.06,13340.76,8279.94
1389828.6428,2980.95,13722.09,34459.55,34289.51,24742.08,28409.29,13378.76,8295.11
1389828.6448,3503.23,13783.98,34463.31,34284.55,24734.83,28439.76,13481.9,8282.09
1389828.6468,3969.24,13872.43,34456.4,34270.43,24714.9,28478.1,13610.56,8264.11
1389828.6488,4163.74,13939.0,34434.61,34244.16,24687.1,28491.21,13693.62,8242.37
1389828.6508,3948.31,13950.06,34416.39,34226.33,24673.37,28470.47,13706.92,8230.16
1389828.6528,3372.76,13898.14,34407.67,34221.94,24677.37,28420.93,13611.51,8234.41
1389828.6548,2764.03,13784.79,34414.34,34232.43,24697.45,28377.3,13454.92,8253.96
1389828.6568,2565.62,13704.02,34429.03,34251.88,24716.52,28361.37,13342.91,8268.64
1389828.6588,2806.85,13686.47,34437.99,34258.56,24721.58,28377.2,13326.07,8269.45
1389828.6608,3295.95,13732.91,34446.48,34262.52,24718.86,28416.35,13403.56,8265.26
1389828.6628,3803.87,13814.36,34437.57,34247.74,24693.3,28449.97,13536.31,8243.61
1389828.6648,4121.73,13897.71,34424.07,34228.9,24666.26,28470.42,13665.92,8218.29
1389828.6668,4055.36,13936.19,34409.34,34215.6,24655.73,28466.85,13724.28,8202.89
1389828.6688,3600.74,13916.64,34399.13,34207.49,24658.83,28430.61,13662.72,8200.26
1389828.6708,2930.07,13811.73,34398.75,34207.35,24677.95,28389.03,13503.46,8213.19
1389828.6728,2573.78,13713.89,34419.11,34224.9,24703.84,28380.83,13363.84,8233.21
1389828.6748,2687.69,13683.89,34438.09,34239.73,24712.76,28399.42,13308.81,8246.04
1389828.6768,3140.74,13720.8,34458.12,34253.32,24718.81,28437.52,13379.53,8253.19
1389828.6788,3639.08,13783.41,34447.24,34242.11,24697.59,28442.91,13483.86,8234.45
1389828.6808,4061.7,13875.53,34438.38,34231.33,24680.38,28466.66,13610.56,8217.81
1389828.6828,4130.36,13931.13,34424.5,34215.5,24662.59,28489.16,13695.34,8203.36
1389828.6848,3806.64,13934.47,34411.39,34212.78,24654.49,28462.6,13682.08,8199.22
1389828.6868,3147.89,13854.98,34408.0,34211.54,24667.22,28414.4,13557.1,8213.47
1389828.6888,2649.07,13741.3,34418.35,34218.51,24692.59,28366.24,13407.14,8238.03
1389828.6908,2603.63,13691.47,34437.33,34245.88,24713.19,28358.65,13345.39,8255.91
1389828.6928,2968.79,13700.15,34444.72,34250.36,24710.28,28387.45,13368.04,8254.0
1389828.6948,3455.11,13744.5,34428.65,34232.0,24688.58,28415.02,13446.43,8228.92
1389828.6968,3933.91,13825.08,34415.63,34217.74,24667.84,28443.82,13570.12,8208.9
1389828.6988,4119.35,13894.08,34399.23,34192.04,24645.95,28462.13,13673.07,8188.87
1389828.7008,3939.92,13923.84,34393.84,34187.7,24641.66,28454.5,13699.06,8184.39
1389828.7028,3350.83,13866.62,34376.24,34177.69,24635.94,28395.04,13596.2,8183.58
1389828.7048,2745.44,13753.13,34377.05,34184.51,24654.82,28354.79,13445.95,8200.41
1389828.7068,2527.76,13674.4,34396.6,34206.2,24680.43,28346.73,13336.47,8224.2
1389828.7088,2785.83,13662.86,34419.92,34221.8,24696.5,28371.91,13315.82,8237.74
1389828.7108,3267.15,13706.59,34424.36,34222.32,24690.2,28409.91,13376.86,8232.74
1389828.7128,3784.61,13791.13,34422.93,34220.03,24673.18,28446.25,13510.18,8218.86
1389828.7148,4112.34,13886.41,34419.97,34217.79,24660.21,28475.57,13642.6,8205.08
1389828.7168,4052.83,13925.46,34408.29,34212.88,24650.15,28472.0,13695.67,8186.15
1389828.7188,3597.16,13905.29,34393.41,34218.22,24647.67,28421.45,13641.07,8168.27
1389828.7208,2937.08,13806.25,34400.75,34233.0,24671.84,28392.22,13503.89,8186.87
1389828.7228,2581.64,13713.55,34421.97,34254.32,24704.13,28382.21,13375.43,8224.2
1389828.7248,2675.68,13675.36,34433.7,34257.03,24714.66,28388.41,13322.59,8248.71
1389828.7268,3114.41,13702.2,34436.66,34245.69,24703.74,28423.27,13375.62,8248.52
1389828.7288,3618.62,13763.86,34432.51,34234.62,24688.53,28450.02,13489.58,8231.69
1389828.7308,4045.39,13856.08,34417.11,34216.22,24661.07,28461.13,13617.71,8206.99
1389828.7328,4098.7,13904.72,34403.28,34194.57,24644.76,28468.8,13691.9,8191.73
1389828.7348,3801.44,13926.65,34404.62,34199.29,24647.43,28457.26,13681.46,8195.21
1389828.7368,3141.12,13847.35,34403.85,34200.62,24660.3,28412.54,13568.69,8209.66
1389828.7388,2641.2,13730.81,34399.18,34202.01,24670.65,28374.15,13412.76,8223.92
1389828.7408,2557.56,13663.58,34410.48,34211.69,24688.72,28367.24,13322.55,8244.18
1389828.7428,2938.65,13675.41,34418.25,34216.55,24689.53,28388.12,13351.63,8243.61
1389828.7448,3439.38,13740.16,34433.27,34224.04,24691.54,28432.13,13460.88,8242.37
1389828.7468,3960.28,13850.07,34445.96,34230.14,24686.72,28476.91,13609.32,8236.46
1389828.7488,4121.26,13902.76,34422.35,34201.1,24659.06,28484.06,13699.91,8204.51
1389828.7508,3962.9,13930.75,34404.81,34189.37,24642.38,28469.85,13717.41,8193.59
1389828.7528,3362.85,13877.35,34391.17,34186.89,24638.51,28421.5,13616.42,8190.49
1389828.7548,2773.81,13770.49,34392.17,34200.58,24657.01,28385.45,13461.02,8199.88
1389828.7568,2522.18,13680.98,34403.04,34216.07,24680.19,28372.96,13345.29,8218.67
1389828.7588,2795.51,13669.64,34416.68,34223.89,24685.1,28392.94,13337.33,8223.3
1389828.7608,3260.52,13714.27,34433.18,34229.43,24688.49,28428.32,13420.44,8229.92
1389828.7628,3811.55,13806.77,34443.19,34233.24,24681.48,28474.43,13551.9,8224.77
1389828.7648,4116.34,13891.32,34434.27,34218.36,24666.36,28501.94,13669.35,8208.32
1389828.7668,4090.02,13936.09,34419.92,34209.3,24652.29,28496.41,13728.81,8194.26
1389828.7688,3614.47,13919.5,34414.06,34212.16,24657.11,28467.09,13678.36,8198.74
1389828.7708,2972.75,13820.27,34414.44,34221.08,24675.42,28431.8,13531.35,8218.19
1389828.7728,2570.06,13706.64,34411.91,34220.18,24685.53,28401.14,13380.48,8228.83
1389828.7748,2688.31,13668.68,34427.79,34233.72,24692.68,28388.65,13330.79,8232.88
1389828.7768,3097.44,13697.58,34441.67,34240.92,24693.02,28389.36,13388.49,8230.83
1389828.7788,3630.21,13770.3,34446.96,34235.72,24682.72,28431.37,13501.5,8215.05
1389828.7808,4043.01,13862.04,34438.71,34223.94,24663.88,28463.99,13612.46,8190.54
1389828.7828,4127.93,13918.12,34423.74,34214.93,24647.38,28478.86,13696.53,8183.91
1389828.7848,3806.26,13925.74,34407.95,34208.06,24639.56,28455.21,13692.43,8185.1
1389828.7868,3171.21,13858.8,34408.05,34218.36,24655.68,28417.88,13579.89,8204.27
1389828.7888,2656.89,13750.13,34420.78,34221.99,24678.95,28384.45,13412.67,8229.69
1389828.7908,2591.8,13684.7,34439.19,34232.29,24697.97,28382.35,13315.58,8251.1
1389828.7928,2945.57,13693.76,34443.86,34233.53,24699.31,28403.24,13347.91,8248.57
1389828.7948,3443.53,13741.83,34440.9,34229.43,24687.25,28433.85,13445.05,8234.45
1389828.7968,3938.15,13832.76,34432.46,34218.94,24666.98,28465.18,13580.85,8216.29
1389828.7988,4137.9,13902.71,34425.17,34207.16,24652.01,28484.35,13685.04,8201.89
1389828.8008,3985.26,13943.39,34422.12,34209.78,24650.29,28482.77,13719.8,8201.31
1389828.8028,3406.29,13890.27,34410.43,34208.02,24652.29,28437.86,13626.62,8205.41
1389828.8048,2798.37,13780.02,34412.44,34212.83,24671.18,28390.36,13467.12,8221.1
1389828.8068,2546.26,13687.14,34428.74,34225.18,24691.87,28371.39,13341.24,8242.27
1389828.8088,2799.65,13684.75,34445.43,34238.72,24700.79,28393.42,13335.99,8250.67
1389828.8108,3261.09,13726.67,34454.73,34243.21,24694.92,28434.66,13419.82,8244.28
1389828.8128,3804.73,13819.03,34458.21,34247.21,24683.72,28469.14,13552.05,8228.92
1389828.8148,4103.71,13886.12,34432.32,34226.8,24653.39,28473.14,13656.52,8195.69
1389828.8168,4076.43,13928.08,34415.77,34212.16,24637.27,28466.09,13706.26,8175.04
1389828.8188,3611.28,13910.82,34413.58,34213.36,24645.71,28441.38,13653.71,8177.9
1389828.8208,2984.91,13832.38,34426.93,34226.8,24677.23,28416.64,13529.21,8202.84
1389828.8228,2574.63,13719.32,34431.75,34233.19,24694.73,28389.17,13382.82,8227.02
1389828.8248,2673.48,13679.12,34435.9,34233.29,24695.59,28382.73,13324.79,8241.42
1389828.8268,3073.69,13694.96,34441.67,34229.71,24690.34,28410.77,13374.52,8242.75
1389828.8288,3621.24,13776.11,34446.29,34232.81,24679.04,28452.3,13499.45,8234.55
1389828.8308,4039.34,13869.43,34440.33,34225.28,24665.98,28479.63,13631.35,8224.15
1389828.8328,4136.04,13921.55,34417.06,34202.96,24643.38,28479.72,13700.82,8202.17
1389828.8348,3801.3,13919.88,34398.51,34191.66,24632.36,28444.58,13677.55,8188.92
1389828.8368,3170.87,13845.11,34387.83,34187.03,24637.03,28387.98,13554.62,8187.72
1389828.8388,2630.0,13725.23,34390.12,34195.43,24653.87,28349.78,13397.17,8201.36
1389828.8408,2571.2,13666.77,34411.82,34216.6,24671.65,28348.26,13308.67,8219.62
1389828.8428,2907.04,13673.69,34425.22,34224.9,24675.75,28379.35,13331.13,8223.06
1389828.8448,3430.8,13740.64,34433.42,34229.04,24674.94,28433.18,13437.94,8219.62
1389828.8468,3914.64,13835.24,34435.56,34220.65,24665.5,28476.19,13577.37,8210.23
1389828.8488,4150.58,13916.64,34429.84,34202.63,24645.14,28498.08,13701.82,8196.64
1389828.8508,3969.24,13941.24,34415.39,34191.95,24635.37,28478.24,13733.82,8186.29
1389828.8528,3415.63,13900.23,34410.62,34202.06,24648.1,28436.14,13638.07,8196.02
1389828.8548,2787.26,13792.33,34423.55,34229.23,24677.9,28412.3,13456.78,8219.86
1389828.8568,2561.04,13701.73,34431.56,34250.17,24693.44,28400.33,13336.33,8234.64
1389828.8588,2783.01,13680.94,34436.18,34253.55,24694.06,28412.2,13321.31,8238.6
1389828.8608,3255.51,13720.04,34439.33,34242.06,24684.48,28426.22,13398.36,8235.65
1389828.8628,3766.97,13791.61,34433.7,34221.8,24667.79,28433.76,13516.95,8221.58
1389828.8648,4113.34,13881.02,34425.88,34207.73,24654.58,28457.6,13644.98,8205.8
1389828.8668,4070.71,13923.74,34410.91,34196.81,24646.81,28461.94,13710.45,8197.74
1389828.8688,3626.63,13902.9,34393.65,34190.8,24643.38,28423.03,13652.56,8196.35
1389828.8708,2947.28,13792.47,34382.97,34181.17,24651.01,28370.91,13495.45,8201.41
1389828.8728,2562.52,13684.56,34392.17,34194.14,24669.7,28350.12,13354.68,8216.0
1389828.8748,2635.1,13646.51,34410.43,34212.45,24680.67,28368.57,13304.81,8223.01
1389828.8768,3065.97,13670.64,34417.97,34215.74,24675.61,28410.39,13357.93,8217.96
1389828.8788,3580.48,13741.54,34418.4,34211.35,24659.68,28432.71,13467.22,8205.03
1389828.8808,4021.17,13832.24,34415.68,34202.63,24645.28,28436.66,13592.24,8183.29
1389828.8828,4107.62,13893.32,34404.47,34189.8,24631.17,28454.26,13679.74,8167.32
1389828.8848,3806.73,13901.9,34393.7,34184.17,24626.35,28425.36,13664.72,8162.55
1389828.8868,3163.77,13836.81,34397.27,34192.52,24645.24,28378.35,13546.85,8185.01
1389828.8888,2661.18,13748.46,34427.07,34230.86,24690.54,28373.29,13417.29,8230.26
1389828.8908,2587.7,13693.0,34447.01,34259.28,24714.62,28379.35,13337.09,8253.29
1389828.8928,2922.49,13683.8,34438.42,34244.92,24698.78,28387.26,13338.23,8242.13
1389828.8948,3413.63,13729.29,34430.17,34226.76,24685.2,28411.77,13424.68,8230.16
1389828.8968,3900.72,13811.92,34424.02,34211.21,24668.27,28435.57,13551.19,8214.86
1389828.8988,4130.36,13898.09,34419.3,34195.33,24652.39,28463.51,13676.12,8202.03
1389828.9008,3971.05,13923.55,34397.7,34178.98,24632.79,28448.63,13706.02,8183.67
1389828.9028,3403.0,13875.01,34378.49,34172.25,24627.26,28400.81,13615.18,8179.86
1389828.9048,2783.97,13763.52,34392.17,34190.75,24654.68,28369.72,13449.15,8201.17
1389828.9068,2537.06,13681.75,34411.34,34218.51,24679.62,28359.27,13327.74,8220.1
1389828.9088,2762.27,13669.64,34427.69,34237.2,24685.43,28378.44,13318.83,8228.49
1389828.9108,3231.24,13706.83,34430.89,34231.95,24674.13,28405.53,13389.83,8216.76
1389828.9128,3743.46,13777.59,34420.88,34210.69,24652.01,28433.47,13500.41,8198.36
1389828.9148,4087.64,13864.19,34404.9,34186.46,24633.79,28455.31,13618.42,8181.67
1389828.9168,4047.68,13899.52,34387.88,34170.01,24622.16,28454.45,13679.36,8169.27
1389828.9188,3621.1,13887.31,34378.77,34170.3,24620.58,28421.83,13638.88,8166.7
1389828.9208,2955.25,13792.28,34384.4,34183.65,24645.62,28381.73,13498.78,8187.01
1389828.9228,2572.25,13696.91,34401.47,34208.92,24675.37,28361.85,13368.47,8216.19
1389828.9248,2640.77,13657.81,34422.59,34229.9,24694.49,28372.62,13312.39,8239.65
1389828.9268,3075.12,13682.75,34434.7,34225.85,24692.92,28396.04,13357.12,8240.18
1389828.9288,3579.76,13746.45,34434.8,34217.55,24681.38,28427.08,13467.93,8224.44
1389828.9308,4035.28,13848.59,34430.46,34215.26,24668.41,28460.17,13605.88,8209.66
1389828.9328,4117.78,13903.67,34417.01,34202.96,24654.58,28470.61,13691.28,8195.54
1389828.9348,3832.44,13909.25,34392.46,34182.6,24633.55,28435.09,13672.45,8168.65
1389828.9368,3161.96,13819.7,34375.58,34172.49,24632.6,28376.87,13539.13,8164.5
1389828.9388,2651.79,13715.65,34389.93,34195.19,24656.11,28348.83,13392.59,8187.2
1389828.9408,2545.17,13653.95,34407.67,34224.66,24671.37,28343.97,13299.28,8209.52
1389828.9428,2907.32,13670.68,34418.3,34231.0,24672.46,28373.67,13322.31,8218.72
1389828.9448,3387.64,13719.8,34423.5,34217.46,24667.5,28414.4,13416.67,8203.03
1389828.9468,3906.3,13809.97,34419.25,34201.67,24651.34,28452.35,13552.72,8184.15
1389828.9488,4114.1,13887.79,34412.67,34197.38,24644.19,28483.82,13673.59,8179.38
1389828.9508,3995.32,13930.13,34409.86,34209.73,24644.47,28483.25,13719.08,8174.09
1389828.9528,3400.85,13872.29,34388.83,34202.01,24635.51,28426.79,13617.61,8167.84
1389828.9548,2799.65,13765.86,34390.84,34209.54,24651.1,28373.86,13457.44,8189.58
1389828.9568,2530.86,13681.79,34411.58,34225.28,24678.42,28363.76,13335.85,8223.01
1389828.9588,2784.97,13676.26,34433.13,34239.63,24695.54,28394.13,13327.84,8247.52
1389828.9608,3226.42,13709.55,34435.47,34220.89,24687.72,28428.65,13401.18,8246.71
1389828.9628,3755.28,13780.17,34428.27,34197.53,24660.45,28446.77,13512.14,8221.25
1389828.9648,4072.33,13861.42,34419.11,34182.03,24639.08,28463.46,13624.19,8202.36
1389828.9668,4065.8,13905.24,34402.99,34172.01,24623.25,28451.68,13686.99,8186.91
1389828.9688,3618.19,13894.7,34394.08,34171.73,24627.4,28411.53,13643.12,8186.29
1389828.9708,2986.67,13814.4,34408.24,34197.29,24659.54,28381.92,13507.75,8210.95
1389828.9728,2568.87,13713.17,34422.12,34219.84,24682.95,28359.89,13367.7,8230.88
1389828.9748,2645.02,13669.16,34434.8,34238.1,24694.21,28355.08,13305.81,8239.08
1389828.9768,3056.19,13694.43,34443.76,34244.3,24693.3,28393.7,13361.84,8239.03
1389828.9788,3583.62,13759.09,34443.43,34235.86,24678.19,28444.34,13478.71,8225.11
1389828.9808,4016.02,13844.54,34427.69,34214.79,24655.54,28476.24,13610.56,8203.84
1389828.9828,4121.88,13903.67,34415.73,34201.77,24640.8,28487.45,13695.15,8191.01
1389828.9848,3828.53,13914.54,34399.28,34196.38,24630.55,28431.56,13669.35,8178.14
1389828.9868,3203.06,13847.73,34399.9,34208.16,24650.96,28391.08,13555.29,8193.78
1389828.9888,2677.97,13751.13,34415.82,34233.1,24679.47,28378.49,13422.73,8217.1
1389828.9908,2583.55,13695.67,34442.38,34257.32,24704.75,28386.6,13342.43,8242.99
1389828.9928,2917.19,13699.63,34445.86,34251.12,24699.4,28407.86,13355.21,8240.75
1389828.9948,3392.17,13736.15,34434.7,34227.52,24677.66,28423.74,13433.46,8220.86
1389828.9968,3897.1,13821.56,34428.51,34210.59,24659.06,28443.72,13560.92,8202.98
1389828.9988,4111.24,13882.11,34410.81,34182.98,24637.85,28453.02,13648.18,8182.77
1389829.0008,3993.56,13919.93,34393.7,34171.54,24627.83,28444.96,13680.51,8171.51
1389829.0028,3440.76,13887.69,34387.26,34179.93,24637.8,28399.8,13604.55,8180.67
1389829.0048,2820.21,13784.65,34388.64,34188.94,24654.44,28354.84,13452.1,8201.41
1389829.0068,2533.58,13688.04,34408.29,34209.54,24679.62,28344.3,13330.7,8226.25
1389829.0088,2765.08,13675.26,34431.18,34229.85,24696.31,28366.86,13315.11,8241.8
1389829.0108,3206.54,13699.1,34432.8,34225.32,24686.29,28400.71,13379.05,8232.5
1389829.0128,3744.65,13775.97,34426.74,34213.12,24660.02,28436.47,13500.26,8207.13
1389829.0148,4068.47,13849.16,34409.53,34187.75,24631.93,28457.64,13613.13,8182.0
1389829.0168,4079.29,13907.67,34409.67,34186.94,24634.7,28454.59,13682.46,8184.29
1389829.0188,3651.05,13904.29,34410.62,34197.57,24648.19,28435.28,13654.42,8193.54
1389829.0208,2999.93,13809.59,34396.8,34193.62,24650.86,28385.5,13516.0,8193.59
1389829.0228,2550.94,13685.99,34394.84,34190.61,24661.97,28344.54,13361.07,8201.93
1389829.0248,2640.39,13653.57,34415.06,34212.74,24678.71,28356.13,13320.92,8217.96
1389829.0268,3041.89,13676.5,34430.65,34224.85,24683.29,28393.42,13364.65,8220.53
1389829.0288,3575.99,13750.13,34433.04,34227.9,24664.79,28424.79,13473.08,8208.18
1389829.0308,3990.94,13833.0,34420.97,34214.26,24635.51,28452.73,13584.57,8182.24
1389829.0328,4121.78,13900.47,34406.38,34194.43,24620.11,28471.85,13683.46,8166.46
1389829.0348,3824.19,13911.2,34391.6,34183.36,24618.77,28452.92,13675.88,8166.89
1389829.0368,3206.68,13846.64,34385.78,34185.08,24634.27,28411.11,13562.49,8182.67
1389829.0388,2643.3,13730.34,34392.31,34193.33,24662.31,28372.1,13409.76,8206.42
1389829.0408,2557.33,13665.77,34403.57,34203.25,24673.13,28358.22,13320.64,8218.29
1389829.0428,2896.74,13684.47,34428.65,34223.23,24687.01,28408.58,13348.49,8234.69
1389829.0448,3413.39,13747.98,34439.0,34231.05,24681.14,28456.31,13449.86,8228.4
1389829.0468,3890.18,13822.18,34433.75,34221.27,24666.03,28460.46,13556.2,8207.85
1389829.0488,4119.87,13879.92,34416.49,34203.01,24648.53,28455.36,13645.08,8181.62
1389829.0508,3967.24,13902.71,34407.05,34195.09,24641.14,28443.15,13676.26,8173.28
1389829.0528,3441.48,13865.9,34401.75,34199.38,24654.96,28418.78,13601.59,8192.21
1389829.0548,2824.02,13771.87,34419.54,34221.27,24694.59,28407.72,13466.79,8237.08
1389829.0568,2563.14,13682.41,34429.08,34234.86,24715.38,28389.31,13345.15,8261.44
1389829.0588,2740.86,13650.28,34429.41,34235.53,24709.85,28374.1,13305.0,8258.87
1389829.0608,3214.79,13690.28,34437.9,34244.54,24707.03,28372.48,13378.57,8247.95
1389829.0628,3743.46,13781.41,34449.15,34266.38,24706.27,28426.03,13518.86,8225.3
1389829.0648,4108.38,13877.16,34458.45,34263.33,24700.93,28462.7,13646.7,8232.26
1389829.0668,4079.25,13916.16,34455.21,34245.45,24692.01,28461.41,13688.95,8241.7
1389829.0688,3676.41,13911.11,34446.2,34249.36,24683.29,28434.38,13647.75,8235.65
1389829.0708,3013.99,13820.79,34445.15,34253.65,24688.39,28392.99,13510.09,8232.5
1389829.0728,2595.38,13718.46,34457.02,34260.8,24722.15,28368.86,13371.28,8265.35
1389829.0748,2646.4,13684.85,34468.51,34273.44,24758.29,28377.92,13314.92,8306.22
1389829.0768,3071.98,13711.74,34476.81,34279.02,24774.51,28414.01,13362.93,8324.91
1389829.0788,3578.0,13772.44,34473.33,34270.24,24766.4,28447.35,13469.36,8317.9
1389829.0808,4017.4,13852.93,34456.88,34263.47,24741.8,28471.04,13595.77,8294.96
1389829.0828,4123.78,13911.49,34437.8,34245.78,24724.44,28477.62,13684.85,8284.05
1389829.0848,3856.85,13927.99,34433.27,34236.82,24731.73,28458.84,13684.23,8285.24
1389829.0868,3228.86,13865.66,34436.66,34250.36,24749.04,28420.74,13574.6,8294.49
1389829.0888,2687.69,13752.03,34444.86,34269.77,24765.54,28389.22,13431.84,8301.21
1389829.0908,2573.01,13682.8,34455.35,34288.65,24777.61,28379.16,13348.72,8312.08
1389829.0928,2897.31,13681.84,34463.22,34297.99,24780.28,28402.28,13365.32,8323.34
1389829.0948,3403.71,13741.35,34477.19,34293.56,24781.04,28447.92,13452.58,8328.25
1389829.0968,3908.59,13828.04,34480.48,34275.87,24768.69,28486.4,13572.84,8318.95
1389829.0988,4147.1,13901.52,34466.22,34253.89,24742.8,28500.37,13681.56,8289.96
1389829.1008,3999.28,13928.7,34446.82,34237.34,24728.16,28485.35,13709.31,8274.37
1389829.1028,3467.46,13896.42,34438.57,34233.48,24728.87,28442.43,13629.1,8282.95
1389829.1048,2832.84,13784.89,34432.84,34234.38,24745.61,28400.52,13475.09,8300.02
1389829.1068,2564.86,13707.45,34451.3,34259.28,24775.36,28394.03,13363.6,8322.05
1389829.1088,2770.66,13698.29,34476.52,34285.93,24795.34,28424.27,13351.68,8339.93
1389829.1108,3224.28,13725.95,34470.32,34271.05,24776.03,28432.09,13405.61,8322.29
1389829.1128,3732.97,13797.0,34465.89,34263.81,24758.15,28447.92,13518.43,8304.5
1389829.1148,4095.27,13885.55,34459.17,34251.55,24738.6,28459.12,13639.36,8281.42
1389829.1168,4085.21,13929.75,34449.72,34234.24,24725.68,28462.08,13701.35,8267.21
1389829.1188,3692.29,13920.31,34434.85,34222.56,24720.77,28424.89,13663.48,8260.58
1389829.1208,3025.44,13831.19,34433.89,34226.95,24742.65,28388.22,13530.21,8280.85
1389829.1228,2620.94,13740.97,34445.72,34251.88,24772.12,28373.2,13402.13,8309.32
1389829.1248,2653.55,13696.82,34463.7,34275.01,24788.33,28383.07,13341.95,8322.96
1389829.1268,3078.56,13724.95,34477.05,34287.79,24786.14,28421.6,13390.69,8323.62
1389829.1288,3576.57,13786.99,34480.15,34293.56,24772.5,28463.08,13496.07,8317.19
1389829.1308,4035.76,13880.02,34467.7,34285.36,24746.66,28484.11,13622.81,8296.16
1389829.1328,4129.46,13930.94,34445.05,34256.89,24720.96,28485.83,13707.31,8267.79
1389829.1348,3872.11,13940.77,34419.83,34237.96,24695.35,28455.98,13705.64,8228.02
1389829.1368,3226.61,13873.77,34412.91,34237.91,24700.55,28410.39,13595.11,8232.93
1389829.1388,2711.44,13777.69,34430.94,34264.95,24730.88,28385.59,13453.53,8268.12
1389829.1408,2575.73,13706.64,34449.06,34279.49,24753.29,28386.83,13345.05,8285.09
1389829.1428,2910.95,13708.07,34463.03,34280.02,24754.05,28409.25,13351.59,8288.91
1389829.1448,3378.77,13756.28,34469.23,34277.06,24744.8,28440.38,13445.81,8290.43
1389829.1468,3905.44,13847.31,34467.37,34276.92,24730.3,28472.95,13577.75,8279.37
1389829.1488,4120.87,13908.82,34447.72,34256.13,24711.8,28485.49,13673.78,8259.25
1389829.1508,4023.89,13952.02,34441.81,34246.59,24709.37,28483.01,13714.6,8262.35
1389829.1528,3486.35,13927.89,34446.2,34247.59,24725.44,28457.98,13651.99,8281.66
1389829.1548,2861.07,13810.02,34430.08,34234.29,24727.01,28394.99,13485.96,8283.43
1389829.1568,2552.37,13716.99,34443.24,34245.07,24743.61,28376.3,13356.26,8302.36
1389829.1588,2772.24,13707.45,34458.64,34259.61,24758.25,28401.04,13333.75,8314.42
1389829.1608,3210.26,13742.64,34459.5,34258.94,24756.63,28440.38,13404.04,8305.07
1389829.1628,3742.5,13807.49,34451.3,34252.93,24736.36,28471.85,13517.81,8277.18
1389829.1648,4076.77,13875.39,34430.03,34236.05,24706.37,28484.54,13625.91,8243.18
1389829.1668,4094.6,13920.74,34417.39,34222.42,24686.24,28482.01,13690.38,8223.82
1389829.1688,3685.57,13920.74,34411.72,34218.12,24686.63,28454.26,13661.48,8224.15
1389829.1708,3046.04,13838.87,34416.44,34231.62,24708.37,28399.23,13538.51,8250.33
1389829.1728,2605.25,13736.87,34429.27,34245.21,24730.35,28374.34,13404.04,8278.9
1389829.1748,2641.34,13687.04,34438.95,34254.36,24736.93,28370.29,13331.94,8288.67
1389829.1768,3036.98,13711.64,34455.21,34264.09,24738.22,28409.77,13381.77,8292.77
1389829.1788,3552.01,13770.63,34457.64,34259.75,24725.06,28442.96,13489.63,8280.9
1389829.1808,3995.85,13855.51,34445.34,34241.49,24705.03,28474.76,13619.14,8262.06
1389829.1828,4122.78,13911.49,34431.89,34221.84,24689.87,28494.17,13714.74,8245.42
1389829.1848,3876.26,13933.14,34424.88,34224.04,24684.48,28475.38,13720.32,8237.55
1389829.1868,3260.9,13875.77,34422.64,34234.05,24700.22,28432.42,13611.8,8249.67
1389829.1888,2723.74,13776.73,34435.47,34247.12,24719.91,28414.16,13471.75,8269.22
1389829.1908,2592.95,13705.21,34447.34,34264.14,24737.6,28410.63,13375.38,8282.76
1389829.1928,2917.19,13716.84,34466.46,34288.27,24748.95,28430.27,13386.3,8295.68
1389829.1948,3377.58,13746.07,34454.16,34279.4,24728.21,28439.57,13462.4,8267.07
1389829.1968,3889.37,13832.28,34448.06,34265.47,24712.47,28474.38,13596.82,8243.94
1389829.1988,4119.92,13898.66,34430.32,34246.78,24696.31,28490.4,13696.24,8232.21
1389829.2008,4009.39,13931.18,34414.58,34218.12,24677.99,28473.38,13719.75,8232.5
1389829.2028,3469.85,13888.5,34407.52,34196.81,24678.57,28435.14,13614.75,8245.76
1389829.2048,2856.54,13787.13,34408.72,34203.2,24689.63,28395.23,13463.98,8262.59
1389829.2072,2553.08,13693.0,34427.12,34232.57,24712.85,28385.59,13350.63,8284.38
1389829.2092,2761.56,13685.66,34452.3,34265.62,24735.74,28408.58,13336.8,8299.97
1389829.2112,3197.15,13718.03,34460.79,34266.95,24742.51,28439.81,13407.76,8295.92
1389829.2132,3744.75,13802.72,34464.6,34264.38,24741.32,28470.09,13538.51,8284.19
1389829.2152,4096.46,13886.12,34455.26,34250.69,24725.11,28495.22,13660.72,8265.88
1389829.2172,4111.58,13926.08,34429.98,34230.33,24698.45,28484.82,13721.28,8227.54
1389829.2192,3682.57,13905.29,34406.24,34212.78,24684.15,28437.9,13665.77,8217.48
1389829.2212,3048.32,13826.8,34409.96,34213.79,24697.83,28399.38,13534.45,8245.14
1389829.2232,2596.43,13717.13,34427.65,34232.24,24722.63,28369.57,13394.88,8267.45
1389829.2252,2650.83,13685.28,34451.97,34262.42,24745.9,28375.3,13339.81,8287.38
1389829.2272,3030.16,13701.73,34464.94,34264.47,24747.04,28399.04,13383.29,8290.2
1389829.2292,3551.29,13759.71,34457.12,34251.88,24727.06,28426.6,13479.66,8274.51
1389829.2312,3973.96,13836.29,34437.14,34230.9,24701.5,28447.35,13586.05,8252.48
1389829.2332,4130.98,13905.0,34419.21,34210.45,24684.29,28465.7,13670.02,8241.13
1389829.2352,3866.01,13926.08,34413.48,34209.92,24680.05,28452.78,13684.51,8237.89
1389829.2372,3271.15,13873.15,34416.49,34227.33,24689.53,28418.12,13585.47,8249.86
1389829.2388,2708.67,13769.68,34435.09,34249.64,24718.91,28396.66,13440.75,8278.51
1389829.2408,2596.33,13708.5,34453.35,34272.48,24744.8,28390.94,13348.49,8296.49
1389829.2428,2884.67,13701.44,34464.27,34275.44,24747.18,28402.76,13353.64,8290.1
1389829.2448,3379.68,13748.65,34466.89,34270.91,24733.83,28433.33,13447.1,8268.74
1389829.2468,3874.16,13831.52,34463.7,34259.37,24714.43,28465.18,13573.36,8260.01
1389829.2488,4144.57,13904.76,34446.39,34231.19,24695.11,28476.58,13674.98,8249.43
1389829.2508,4007.48,13927.27,34424.74,34208.35,24683.43,28472.62,13705.88,8236.08
1389829.2528,3499.56,13901.19,34412.44,34214.88,24692.73,28453.12,13643.7,8241.85
1389829.2548,2857.97,13797.05,34416.16,34228.85,24715.09,28419.69,13500.45,8264.07
1389829.2568,2567.34,13705.16,34429.32,34246.21,24735.26,28371.15,13374.9,8287.57
1389829.2588,2726.6,13674.17,34438.8,34244.73,24740.79,28357.22,13337.33,8292.29
1389829.2608,3185.7,13711.45,34448.91,34244.02,24736.84,28396.9,13393.36,8288.29
1389829.2628,3705.17,13794.09,34457.5,34251.26,24727.97,28444.53,13502.98,8280.8
1389829.2648,4083.44,13881.92,34448.91,34243.3,24708.46,28470.04,13628.29,8257.68
1389829.2668,4098.46,13933.47,34437.09,34227.66,24696.5,28482.73,13708.88,8234.55
1389829.2688,3715.23,13925.98,34421.59,34220.03,24690.77,28453.45,13675.02,8222.44
1389829.2708,3048.71,13835.19,34411.67,34216.98,24698.21,28403.05,13535.31,8235.26
1389829.2728,2613.54,13735.68,34424.55,34241.35,24721.48,28380.11,13397.55,8271.31
1389829.2748,2642.3,13697.34,34447.2,34271.44,24742.89,28393.08,13342.33,8298.54
1389829.2768,3036.98,13717.27,34460.6,34277.49,24741.8,28421.31,13384.34,8300.07
1389829.2788,3536.42,13773.16,34454.64,34264.33,24722.53,28453.54,13482.24,8283.33
1389829.2808,3992.94,13858.13,34447.34,34240.2,24706.84,28480.2,13609.94,8266.45
1389829.2828,4134.85,13924.17,34439.04,34216.07,24693.3,28482.63,13708.02,8255.82
1389829.2848,3898.67,13944.58,34431.65,34213.36,24686.58,28454.78,13712.36,8254.34
1389829.2868,3285.65,13890.74,34422.4,34219.89,24693.54,28422.03,13613.23,8254.29
1389829.2888,2722.22,13780.45,34424.83,34241.73,24719.67,28392.46,13466.65,8261.01
1389829.2908,2596.28,13723.99,34448.72,34272.77,24756.43,28396.42,13380.1,8287.76
1389829.2928,2900.93,13721.13,34464.41,34280.45,24765.69,28419.83,13383.34,8300.35
1389829.2948,3368.04,13752.56,34452.87,34252.08,24739.6,28439.72,13452.67,8276.51
1389829.2968,3880.12,13837.48,34453.83,34241.87,24722.87,28481.92,13580.04,8271.84
1389829.2988,4157.59,13913.35,34432.13,34218.17,24692.92,28495.51,13689.09,8244.9
1389829.3008,4044.1,13938.33,34408.05,34202.01,24670.03,28472.43,13722.95,8223.44
1389829.3028,3523.3,13910.49,34401.71,34208.16,24674.75,28436.09,13650.23,8228.83
1389829.3048,2863.79,13797.71,34401.71,34219.7,24693.83,28395.32,13492.49,8246.28
1389829.3068,2556.85,13714.46,34417.3,34247.4,24721.53,28384.69,13368.7,8271.98
1389829.3088,2728.51,13699.68,34443.91,34265.57,24749.43,28404.86,13346.48,8304.12
1389829.3108,3191.76,13737.25,34452.92,34263.66,24742.32,28434.8,13415.77,8298.21
1389829.3128,3701.5,13801.53,34449.3,34249.98,24721.29,28452.97,13522.91,8275.65
1389829.3148,4077.82,13884.93,34437.47,34228.47,24695.69,28457.84,13639.74,8246.9
1389829.3168,4081.2,13922.41,34414.92,34208.16,24676.76,28461.89,13700.73,8228.3
1389829.3188,3715.66,13921.02,34399.51,34208.54,24675.09,28445.53,13670.97,8223.15
1389829.3208,3044.99,13840.15,34407.91,34228.85,24702.12,28411.11,13545.75,8246.85
1389829.3228,2609.63,13744.74,34423.88,34244.21,24726.35,28385.69,13412.81,8268.07
1389829.3248,2614.74,13697.1,34441.86,34250.79,24743.56,28384.02,13341.05,8286.91
1389829.3268,3031.35,13721.99,34456.16,34257.46,24748.9,28408.96,13383.91,8292.39
1389829.3288,3519.34,13771.44,34456.16,34248.02,24736.69,28440.76,13478.71,8284.28
1389829.3308,4002.43,13864.47,34448.53,34237.53,24715.33,28478.67,13608.93,8267.59
1389829.3328,4119.64,13919.21,34432.18,34215.69,24692.54,28489.64,13700.92,8248.47
1389829.3348,3904.72,13949.21,34431.46,34220.99,24689.96,28475.96,13722.76,8247.47
1389829.3368,3269.01,13884.16,34424.21,34223.8,24697.21,28422.69,13616.37,8249.67
1389829.3388,2722.79,13775.16,34429.7,34235.24,24713.23,28387.26,13463.26,8255.48
1389829.3408,2558.61,13702.92,34456.02,34264.04,24745.85,28382.97,13353.4,8283.9
1389829.3428,2869.65,13698.15,34455.73,34265.33,24743.08,28403.81,13347.29,8294.25
1389829.3448,3324.65,13736.87,34446.01,34251.74,24725.49,28431.56,13426.16,8282.95
1389829.3468,3857.52,13825.47,34436.95,34240.15,24702.74,28464.23,13560.06,8262.16
1389829.3488,4104.52,13898.28,34416.68,34214.26,24680.33,28481.96,13673.59,8239.17
1389829.3508,4024.32,13941.91,34403.33,34205.11,24673.61,28470.81,13720.94,8231.45
1389829.3528,3507.52,13919.36,34407.86,34211.59,24690.2,28437.14,13652.61,8244.37
1389829.3548,2887.58,13815.26,34413.96,34224.66,24711.99,28400.38,13497.02,8263.16
1389829.3568,2531.72,13701.63,34409.57,34224.61,24721.58,28364.71,13349.01,8268.07
1389829.3588,2711.53,13676.12,34423.07,34234.34,24732.4,28376.44,13314.63,8274.89
1389829.3608,3155.71,13720.7,34437.33,34243.73,24735.74,28413.35,13390.64,8277.66
1389829.3628,3691.44,13796.76,34435.66,34243.25,24721.15,28450.54,13521.29,8261.01
1389829.3648,4054.21,13875.82,34419.11,34229.62,24694.35,28465.47,13640.07,8235.5
1389829.3667,4094.65,13923.55,34403.47,34217.93,24677.18,28468.95,13705.3,8221.06
1389829.3687,3717.8,13929.51,34401.04,34224.51,24679.14,28459.36,13671.3,8229.16
1389829.3707,3075.79,13851.88,34413.82,34238.68,24705.32,28436.33,13552.33,8250.95
1389829.3727,2609.4,13740.26,34419.68,34244.97,24722.05,28404.62,13405.66,8261.4
1389829.3747,2618.27,13684.42,34431.65,34268.19,24733.26,28380.83,13330.75,8272.84
1389829.3767,3003.22,13707.59,34446.91,34277.87,24736.79,28402.19,13371.14,8286.52
1389829.3787,3518.49,13774.11,34456.16,34264.38,24732.88,28449.97,13482.62,8290.29
1389829.3807,3986.5,13870.19,34448.82,34238.91,24714.76,28485.68,13627.24,8275.56
1389829.3827,4127.26,13922.88,34432.13,34217.41,24693.54,28487.4,13719.94,8245.66
1389829.3847,3908.68,13945.91,34430.08,34211.83,24687.91,28465.23,13719.42,8235.98
1389829.3867,3298.19,13881.4,34419.06,34213.02,24694.97,28415.54,13595.92,8250.57
1389829.3887,2728.75,13773.87,34424.5,34226.33,24712.66,28374.15,13443.14,8275.03
1389829.3907,2557.9,13700.82,34448.06,34258.56,24739.08,28371.86,13342.76,8303.5
1389829.3927,2863.46,13704.92,34459.83,34272.29,24745.42,28395.89,13347.15,8309.75
1389829.3947,3325.37,13742.4,34451.87,34257.27,24732.21,28418.02,13421.11,8292.72
1389829.3967,3853.46,13832.09,34444.43,34248.79,24714.9,28446.06,13545.9,8269.98
1389829.3988,4113.58,13905.0,34427.79,34233.86,24696.73,28468.56,13654.71,8249.81
1389829.4008,4036.57,13941.15,34406.14,34213.26,24679.0,28467.32,13699.34,8228.97
1389829.4028,3519.44,13914.73,34400.09,34206.78,24685.86,28434.95,13635.73,8233.69
1389829.4048,2906.28,13833.62,34417.3,34231.38,24716.76,28414.78,13507.7,8262.73
1389829.4068,2567.67,13731.29,34432.46,34254.13,24737.84,28386.07,13382.15,8280.8
1389829.4088,2745.82,13714.03,34450.77,34275.54,24750.14,28392.32,13357.21,8295.54
1389829.4108,3162.77,13731.43,34451.73,34259.18,24740.17,28417.07,13408.04,8287.76
1389829.4128,3697.68,13794.95,34440.9,34234.19,24712.99,28443.67,13510.61,8261.16
1389829.4148,4059.94,13875.72,34430.79,34221.8,24694.78,28465.27,13619.14,8241.32
1389829.4168,4125.26,13939.67,34426.98,34226.23,24691.82,28480.77,13704.92,8236.17
1389829.4188,3739.93,13937.47,34418.44,34215.5,24691.78,28454.78,13687.33,8233.88
1389829.4208,3104.97,13861.32,34426.22,34222.03,24710.61,28407.39,13563.78,8250.14
1389829.4228,2617.07,13748.65,34439.95,34239.2,24730.16,28375.06,13412.24,8258.58
1389829.4248,2638.39,13706.5,34459.02,34258.56,24746.95,28383.31,13343.29,8283.76
1389829.4268,3009.8,13718.75,34467.65,34267.29,24751.62,28417.73,13364.32,8300.11
1389829.4288,3531.65,13777.97,34463.22,34264.71,24738.36,28440.43,13463.93,8294.54
1389829.4308,3973.25,13857.51,34450.58,34246.83,24712.99,28454.02,13589.19,8266.97
1389829.4328,4135.94,13915.21,34422.4,34220.18,24682.24,28460.7,13674.45,8239.41
1389829.4348,3900.48,13934.66,34412.39,34214.88,24676.09,28442.58,13682.99,8233.93
1389829.4368,3323.27,13895.13,34422.59,34233.57,24700.74,28412.77,13600.92,8257.82
1389829.4388,2736.85,13791.61,34436.75,34252.46,24728.21,28387.5,13458.4,8287.81
1389829.4408,2581.64,13716.03,34450.11,34272.39,24751.57,28377.11,13352.11,8308.08
1389829.4428,2853.68,13706.21,34457.21,34278.83,24756.15,28385.45,13345.91,8310.03
1389829.4448,3346.35,13752.18,34459.88,34276.58,24745.75,28418.35,13429.69,8300.21
1389829.4468,3851.41,13840.39,34466.13,34269.19,24735.84,28462.6,13565.21,8289.77
1389829.4488,4161.64,13935.85,34470.42,34262.09,24730.35,28501.75,13698.05,8283.04
1389829.4508,4060.55,13962.6,34443.86,34236.77,24709.04,28489.31,13737.49,8261.44
1389829.4528,3548.29,13912.35,34411.43,34208.68,24688.91,28429.75,13654.19,8233.5
1389829.4548,2888.63,13807.78,34415.68,34223.66,24709.37,28389.98,13508.23,8250.52
1389829.4568,2569.25,13713.55,34436.52,34245.83,24732.78,28374.2,13384.3,8282.61
1389829.4588,2718.69,13687.99,34454.68,34255.13,24746.13,28390.03,13346.34,8298.64
1389829.4608,3168.06,13718.8,34462.74,34262.9,24744.23,28429.56,13403.94,8296.82
1389829.4628,3681.28,13792.04,34457.97,34260.56,24729.16,28469.76,13528.16,8275.8
1389829.4648,4079.63,13884.45,34447.24,34240.2,24712.42,28500.85,13655.81,8254.48
1389829.4668,4112.43,13933.71,34425.93,34214.98,24698.59,28503.33,13721.04,8237.51
1389829.4688,3742.79,13922.41,34403.95,34198.96,24688.39,28466.61,13675.83,8225.2
1389829.4708,3078.94,13834.86,34400.42,34200.72,24698.74,28404.0,13537.65,8237.98
1389829.4728,2605.58,13719.42,34407.1,34208.49,24714.28,28349.55,13385.58,8257.96
1389829.4748,2595.28,13671.92,34430.22,34229.43,24732.88,28356.13,13317.63,8277.85
1389829.4768,2987.53,13691.81,34446.29,34242.54,24739.46,28398.23,13356.5,8287.72
1389829.4788,3499.79,13755.28,34450.73,34245.88,24733.88,28435.14,13457.2,8277.13
1389829.4808,3974.68,13847.69,34450.25,34246.45,24711.09,28472.24,13594.68,8262.54
1389829.4828,4140.81,13918.35,34439.85,34231.95,24689.68,28475.67,13693.1,8246.42
1389829.4848,3925.09,13936.33,34427.12,34221.84,24682.29,28451.78,13699.49,8235.6
1389829.4868,3324.84,13884.26,34417.68,34219.27,24694.11,28406.77,13595.49,8244.99
1389829.4888,2729.37,13772.3,34427.17,34238.58,24726.35,28369.0,13438.85,8272.6
1389829.4908,2552.65,13695.15,34441.9,34255.13,24749.19,28360.32,13333.37,8290.34
1389829.4928,2838.71,13691.62,34457.59,34258.08,24760.39,28388.36,13339.66,8298.92
1389829.4948,3328.71,13737.87,34460.93,34251.03,24751.24,28428.8,13428.55,8292.34
1389829.4968,3848.51,13824.89,34466.46,34249.02,24740.37,28478.53,13562.49,8285.76
1389829.4988,4146.29,13906.15,34454.02,34232.57,24721.39,28501.75,13678.08,8267.31
1389829.5008,4041.1,13929.65,34428.74,34214.31,24700.74,28490.64,13714.7,8244.99
1389829.5028,3549.91,13904.38,34418.06,34212.78,24699.5,28439.86,13645.84,8238.94
1389829.5048,2895.88,13805.15,34419.25,34228.9,24723.44,28390.94,13501.79,8246.66
1389829.5068,2563.72,13702.06,34418.73,34234.0,24726.63,28366.62,13367.51,8253.38
1389829.5088,2689.79,13661.1,34425.07,34243.3,24729.02,28375.15,13319.45,8269.17
1389829.5108,3153.52,13704.3,34443.53,34252.6,24736.55,28415.49,13385.01,8285.24
1389829.5128,3674.41,13780.17,34454.49,34250.17,24729.11,28455.26,13503.55,8284.38
1389829.5148,4082.01,13869.1,34443.19,34224.9,24702.36,28475.24,13639.4,8260.44
1389829.5168,4099.37,13913.78,34427.55,34204.44,24687.96,28473.95,13721.99,8244.04
1389829.5188,3764.3,13924.55,34417.73,34204.44,24683.67,28447.35,13703.87,8242.89
1389829.5208,3102.64,13846.26,34422.59,34212.07,24703.74,28409.15,13562.35,8263.4
1389829.5228,2640.63,13744.83,34442.14,34234.91,24737.03,28380.78,13398.36,8293.82
1389829.5248,2620.17,13698.63,34472.76,34267.48,24772.55,28389.93,13336.04,8322.76
1389829.5268,3024.15,13717.8,34481.2,34274.73,24773.93,28416.26,13376.29,8322.53
1389829.5288,3501.22,13764.1,34469.47,34261.23,24751.48,28444.01,13459.16,8296.59
1389829.5308,3987.84,13856.08,34459.64,34259.13,24731.88,28473.29,13584.95,8273.75
1389829.5328,4130.17,13916.06,34443.05,34242.73,24711.04,28489.93,13675.83,8258.01
1389829.5348,3944.25,13943.91,34426.5,34231.95,24698.4,28481.2,13699.72,8245.71
1389829.5368,3320.5,13882.59,34412.34,34221.46,24699.17,28427.99,13598.21,8245.52
1389829.5388,2752.35,13771.49,34414.58,34218.94,24716.76,28376.87,13443.9,8264.59
1389829.5408,2552.03,13699.34,34436.9,34239.92,24744.7,28364.14,13344.91,8292.63
1389829.5428,2847.34,13693.72,34452.35,34248.07,24749.23,28383.31,13342.14,8295.06
1389829.5448,3296.28,13726.19,34455.45,34241.63,24740.17,28404.72,13411.09,8284.14
1389829.5468,3822.61,13804.63,34446.91,34227.9,24719.62,28429.7,13533.07,8263.49
1389829.5488,4097.18,13879.59,34429.7,34208.78,24699.21,28453.02,13651.09,8240.89
1389829.5508,4043.87,13925.03,34424.21,34207.21,24694.02,28456.98,13705.21,8237.46
1389829.5528,3550.86,13909.63,34423.36,34216.88,24701.65,28432.23,13650.61,8247.19
1389829.5548,2928.73,13818.17,34434.42,34235.77,24727.25,28400.95,13513.71,8268.74
1389829.5568,2565.43,13720.32,34446.82,34252.31,24746.66,28376.39,13377.33,8281.71
1389829.5587,2718.07,13696.77,34466.22,34272.39,24761.25,28390.32,13342.67,8300.59
1389829.5607,3150.65,13723.28,34469.32,34266.38,24761.25,28428.46,13402.65,8302.98
1389829.5627,3679.75,13784.84,34456.97,34251.93,24735.6,28463.13,13511.47,8283.04
1389829.5647,4058.98,13869.76,34438.8,34232.91,24710.23,28484.63,13635.54,8260.63
1389829.5667,4114.53,13915.87,34422.54,34217.27,24693.44,28469.14,13706.4,8242.47
1389829.5687,3761.82,13915.02,34408.72,34200.2,24687.15,28433.99,13679.32,8236.12
1389829.5707,3117.99,13834.53,34409.53,34204.34,24703.98,28397.23,13549.71,8252.43
1389829.5727,2625.42,13726.67,34418.78,34221.8,24727.49,28361.13,13398.84,8277.94
1389829.5747,2606.25,13676.55,34441.76,34247.64,24754.29,28364.85,13327.27,8303.36
1389829.5767,2986.86,13692.91,34454.97,34250.64,24756.77,28395.56,13360.07,8303.17
1389829.5787,3489.69,13755.08,34466.46,34252.08,24751.81,28434.95,13460.73,8298.45
1389829.5807,3978.49,13853.93,34460.88,34244.88,24728.35,28465.08,13594.68,8277.61
1389829.5827,4147.43,13913.97,34441.9,34225.18,24698.45,28480.53,13692.05,8250.38
1389829.5847,3951.69,13941.0,34424.55,34214.41,24680.81,28466.28,13714.74,8233.12
1389829.5867,3347.87,13885.45,34420.07,34217.41,24693.16,28427.46,13617.28,8242.7
1389829.5887,2772.76,13785.36,34438.85,34239.73,24734.5,28396.09,13470.13,8272.17
1389829.5907,2545.07,13680.36,34440.0,34246.31,24749.38,28365.9,13338.38,8270.41
1389829.5927,2812.91,13665.39,34444.72,34252.6,24745.28,28383.5,13327.36,8255.05
1389829.5947,3286.31,13713.55,34457.12,34255.32,24742.84,28430.27,13416.2,8260.06
1389829.5967,3823.33,13799.24,34444.0,34234.77,24716.09,28467.42,13546.9,8251.1
1389829.5987,4097.7,13869.0,34418.87,34203.15,24684.38,28466.42,13652.23,8228.59
1389829.6007,4046.87,13910.82,34403.23,34188.8,24669.36,28446.68,13696.39,8215.71
1389829.6027,3549.43,13882.73,34391.69,34184.84,24669.22,28413.59,13630.11,8216.29
1389829.6047,2914.29,13787.41,34391.6,34191.14,24682.0,28376.87,13486.1,8228.78
1389829.6067,2541.78,13689.66,34413.72,34209.64,24711.66,28369.38,13365.17,8254.48
1389829.6087,2705.29,13674.45,34442.81,34230.57,24732.69,28383.64,13335.56,8272.32
1389829.6107,3128.0,13699.25,34458.12,34232.1,24736.22,28415.35,13392.5,8272.22
1389829.6127,3664.16,13765.34,34444.1,34215.12,24713.04,28441.24,13495.73,8243.13
1389829.6147,4027.99,13831.57,34415.87,34179.74,24678.76,28445.58,13592.58,8202.89
1389829.6167,4101.18,13886.79,34397.89,34162.86,24656.63,28451.64,13678.22,8180.24
1389829.6187,3731.01,13881.4,34380.44,34151.8,24642.42,28424.27,13655.62,8171.56
1389829.6207,3092.1,13804.34,34377.25,34155.66,24653.96,28383.21,13527.3,8184.0
1389829.6228,2589.04,13699.01,34396.08,34180.17,24682.91,28364.57,13385.44,8212.9
1389829.6248,2587.7,13658.57,34423.69,34213.69,24706.08,28369.67,13318.97,8231.55
1389829.6268,2934.46,13664.2,34433.27,34219.75,24705.56,28385.17,13345.39,8231.74
1389829.6288,3440.48,13711.88,34429.75,34207.3,24689.3,28405.0,13441.28,8214.0
1389829.6308,3901.67,13792.66,34420.4,34193.66,24672.27,28429.37,13568.31,8194.11
1389829.6328,4109.57,13869.14,34403.38,34182.12,24654.73,28452.07,13675.07,8179.81
1389829.6348,3893.66,13889.89,34384.54,34170.06,24641.18,28439.62,13684.8,8165.79
1389829.6368,3309.58,13830.95,34368.57,34160.57,24638.27,28383.69,13573.41,8166.12
1389829.6388,2697.04,13712.46,34367.76,34161.14,24651.82,28337.67,13411.81,8181.29
1389829.6408,2508.16,13637.83,34391.6,34176.5,24677.33,28335.38,13314.92,8206.56
1389829.6428,2760.51,13629.63,34408.43,34184.98,24687.67,28357.03,13303.0,8215.57
1389829.6448,3258.09,13675.17,34416.87,34193.9,24679.85,28394.37,13383.96,8197.55
1389829.6468,3776.5,13764.24,34416.44,34194.81,24666.98,28428.03,13524.34,8191.73
1389829.6488,4092.65,13848.5,34406.95,34182.27,24652.82,28444.25,13645.51,8184.62
1389829.6508,4004.96,13868.0,34370.95,34148.89,24622.11,28421.21,13683.08,8158.02
1389829.6528,3536.65,13847.5,34361.32,34148.12,24622.35,28391.51,13609.79,8157.64
1389829.6548,2875.47,13754.27,34367.61,34156.04,24645.62,28363.71,13460.16,8178.28
1389829.6568,2520.32,13662.67,34383.73,34185.6,24671.22,28353.84,13321.4,8189.82
1389829.6588,2649.21,13644.51,34412.15,34213.5,24691.63,28370.67,13292.12,8197.21
1389829.6608,3091.96,13675.83,34423.5,34215.26,24689.77,28398.52,13356.83,8190.97
1389829.6628,3608.8,13745.02,34426.98,34209.21,24679.57,28434.09,13463.16,8198.02
1389829.6648,4031.61,13834.72,34424.4,34190.33,24663.31,28460.55,13590.0,8202.98
1389829.6668,4094.79,13887.93,34407.1,34167.44,24651.2,28431.56,13673.31,8195.45
1389829.6688,3751.8,13882.83,34379.82,34145.69,24639.23,28397.75,13648.75,8182.48
1389829.6708,3091.62,13797.52,34366.33,34141.16,24645.62,28359.94,13516.0,8192.83
1389829.6728,2595.81,13687.76,34377.39,34166.77,24673.75,28335.0,13369.47,8217.53
1389829.6748,2564.48,13642.6,34398.94,34200.1,24697.12,28338.44,13301.37,8235.93
1389829.6768,2929.07,13657.95,34413.06,34210.21,24699.74,28360.13,13334.66,8240.37
1389829.6788,3430.13,13709.88,34410.53,34197.76,24679.57,28388.46,13429.12,8224.3
1389829.6808,3911.69,13793.04,34402.09,34181.74,24655.63,28414.3,13554.38,8197.02
1389829.6828,4102.04,13865.52,34390.41,34164.19,24639.42,28434.23,13657.38,8177.95
1389829.6848,3903.1,13883.97,34377.77,34150.56,24629.83,28416.54,13668.82,8161.45
1389829.6867,3316.69,13833.67,34369.0,34151.56,24630.02,28373.53,13573.12,8158.26
1389829.6887,2705.72,13718.75,34377.05,34164.91,24655.15,28340.3,13418.2,8176.14
1389829.6907,2509.55,13655.0,34407.52,34202.58,24688.91,28351.98,13328.74,8216.24
1389829.6927,2785.3,13662.05,34441.38,34227.28,24715.0,28393.89,13343.72,8248.71
1389829.6947,3270.72,13707.21,34438.85,34207.49,24702.31,28425.84,13425.26,8238.36
1389829.6967,3759.91,13766.29,34411.2,34174.49,24664.45,28432.04,13526.16,8202.27
1389829.6987,4077.01,13844.87,34392.89,34150.51,24637.61,28447.06,13642.07,8176.38
1389829.7007,4010.11,13875.68,34375.53,34129.77,24619.63,28445.06,13688.04,8159.11
1389829.7027,3559.02,13860.94,34371.57,34133.39,24626.16,28413.16,13635.16,8165.65
1389829.7047,2890.63,13763.95,34378.1,34153.75,24649.96,28370.81,13490.25,8186.39
1389829.7067,2524.66,13660.24,34379.49,34164.96,24664.31,28345.73,13354.49,8196.16
1389829.7087,2618.03,13614.04,34388.21,34170.58,24676.37,28343.73,13297.61,8203.89
1389829.7107,3058.34,13638.69,34392.65,34170.82,24669.22,28359.85,13343.67,8196.35
1389829.7127,3572.89,13706.97,34393.89,34170.68,24656.01,28399.38,13457.59,8186.48
1389829.7147,4010.63,13804.77,34389.36,34164.19,24639.37,28431.75,13588.62,8173.75
1389829.7167,4063.89,13857.22,34371.19,34144.41,24622.97,28440.43,13667.92,8161.12
1389829.7187,3754.62,13873.24,34361.8,34137.4,24618.01,28419.93,13658.43,8158.49
1389829.7207,3086.85,13792.33,34357.22,34137.63,24631.36,28384.4,13534.6,8168.65
1389829.7227,2593.09,13679.89,34361.8,34149.79,24648.29,28348.88,13377.86,8183.15
1389829.7247,2525.43,13624.86,34383.59,34176.02,24668.65,28348.88,13297.37,8203.22
1389829.7267,2922.92,13655.81,34412.77,34205.35,24688.53,28389.84,13341.67,8217.43
1389829.7287,3405.09,13696.24,34401.9,34190.56,24667.36,28400.0,13426.54,8187.58
1389829.7307,3912.59,13789.37,34396.84,34176.31,24648.34,28424.65,13554.0,8164.93
1389829.7327,4085.26,13859.46,34391.69,34161.91,24639.66,28450.4,13660.34,8163.74
1389829.7347,3930.09,13891.27,34381.35,34149.75,24627.78,28438.29,13680.65,8160.31
1389829.7367,3329.18,13838.15,34375.29,34142.55,24628.79,28396.99,13587.62,8167.36
1389829.7387,2744.96,13735.15,34383.01,34160.33,24650.77,28365.04,13441.95,8185.44
1389829.7407,2494.72,13644.41,34392.5,34179.88,24665.64,28339.58,13325.88,8192.4
1389829.7427,2773.09,13642.07,34410.48,34199.62,24678.76,28356.84,13326.55,8193.54
1389829.7447,3238.92,13686.32,34417.92,34190.94,24678.09,28391.75,13409.52,8201.79
1389829.7467,3778.03,13774.97,34423.5,34178.5,24672.94,28435.38,13535.93,8205.37
1389829.7487,4083.73,13859.32,34415.06,34161.86,24661.45,28463.27,13655.33,8195.78
1389829.7507,4038.95,13889.98,34387.88,34140.73,24637.37,28445.63,13679.36,8175.04
1389829.7527,3552.39,13863.85,34366.37,34132.44,24624.49,28392.46,13609.08,8164.55
1389829.7547,2902.84,13767.43,34366.28,34143.21,24641.71,28343.01,13463.4,8181.62
1389829.7567,2521.56,13673.59,34385.73,34166.91,24669.13,28324.61,13334.42,8210.42
1389829.7587,2649.93,13643.74,34409.05,34192.14,24684.24,28348.07,13293.46,8226.2
1389829.7607,3066.16,13671.3,34415.92,34197.33,24682.0,28391.08,13351.59,8225.63
1389829.7627,3602.08,13744.4,34418.21,34192.42,24673.94,28436.43,13468.03,8209.28
1389829.7647,4025.7,13842.73,34412.67,34182.03,24661.93,28460.79,13604.64,8191.59
1389829.7667,4126.12,13913.68,34415.92,34186.27,24662.64,28463.41,13705.35,8191.21
1389829.7687,3800.44,13922.12,34406.33,34183.22,24658.02,28446.92,13695.0,8182.96
1389829.7707,3149.08,13834.86,34398.89,34182.22,24664.93,28417.5,13569.74,8190.82
1389829.7727,2644.83,13735.58,34410.81,34194.28,24688.06,28406.67,13439.37,8218.29
1389829.7747,2587.18,13680.17,34433.46,34219.32,24708.56,28420.4,13365.65,8244.23
1389829.7767,2960.01,13694.43,34456.97,34233.48,24718.81,28432.99,13381.63,8255.15
1389829.7787,3448.96,13742.5,34456.88,34225.94,24706.41,28425.74,13453.77,8244.18
1389829.7807,3944.87,13835.81,34443.38,34211.07,24681.81,28467.71,13586.67,8220.91
1389829.7827,4130.51,13897.71,34426.41,34196.71,24659.35,28483.3,13687.99,8199.98
1389829.7847,3969.1,13925.89,34410.29,34185.8,24645.24,28468.28,13710.83,8187.72
1389829.7867,3371.14,13869.57,34390.31,34171.44,24644.81,28421.55,13621.52,8184.48
1389829.7887,2766.37,13762.24,34389.64,34178.74,24668.98,28381.06,13474.37,8201.31
1389829.7907,2523.23,13674.26,34414.58,34205.11,24704.17,28366.81,13354.97,8231.02
1389829.7927,2798.41,13673.45,34439.23,34227.57,24721.58,28375.1,13336.52,8246.8
1389829.7947,3251.17,13700.87,34441.52,34217.65,24706.41,28393.46,13400.94,8234.64
1389829.7967,3777.27,13778.74,34429.22,34199.34,24675.99,28419.45,13519.05,8207.94
1389829.7987,4064.89,13843.25,34398.23,34165.43,24638.04,28425.03,13628.48,8174.37
1389829.8007,4030.28,13881.97,34369.19,34140.07,24612.48,28415.87,13691.47,8150.63
1389829.8027,3564.17,13869.76,34374.77,34149.46,24627.78,28394.08,13647.99,8161.93
1389829.8047,2926.4,13779.45,34381.35,34159.57,24647.48,28362.9,13499.21,8182.62
1389829.8067,2525.47,13679.79,34398.61,34183.03,24679.19,28347.92,13350.63,8212.04
1389829.8087,2640.01,13644.6,34408.53,34187.85,24685.05,28346.68,13302.38,8215.14
1389829.8107,3046.37,13666.2,34420.26,34188.37,24686.63,28376.87,13352.97,8214.0
1389829.8127,3593.83,13740.54,34420.07,34188.32,24671.51,28409.48,13462.78,8202.08
1389829.8147,4000.71,13828.95,34413.72,34173.45,24652.67,28438.24,13591.67,8186.53
1389829.8167,4100.37,13885.07,34398.51,34157.8,24635.94,28447.58,13674.4,8170.46
1389829.8187,3768.02,13884.69,34384.59,34150.08,24627.16,28426.6,13656.28,8160.69
1389829.8207,3135.11,13811.73,34374.38,34145.17,24633.03,28386.98,13536.55,8168.75
1389829.8227,2604.44,13698.91,34381.35,34158.66,24655.06,28354.6,13388.73,8191.49
1389829.8247,2570.68,13656.52,34413.01,34193.85,24687.2,28358.89,13325.79,8223.44
1389829.8267,2913.57,13668.2,34428.89,34208.87,24695.78,28389.84,13355.54,8235.26
1389829.8287,3430.99,13720.66,34427.79,34203.01,24681.09,28425.84,13449.77,8215.67
1389829.8307,3909.78,13803.67,34420.3,34190.09,24661.93,28455.17,13579.32,8182.1
1389829.8327,4121.45,13868.48,34396.08,34166.01,24636.75,28461.41,13674.88,8151.82
1389829.8347,3923.56,13883.78,34373.96,34144.55,24617.15,28436.38,13688.18,8138.85
1389829.8367,3363.75,13843.39,34370.57,34144.36,24624.83,28400.9,13597.78,8154.39
1389829.8387,2753.78,13750.84,34395.13,34167.44,24662.64,28382.02,13456.39,8195.93
1389829.8407,2538.82,13675.6,34417.78,34195.33,24694.87,28371.15,13340.09,8231.26
1389829.8427,2763.61,13653.23,34419.21,34195.24,24692.97,28378.3,13315.73,8232.55
1389829.8447,3243.97,13691.71,34422.35,34189.42,24682.57,28412.73,13392.12,8222.44
1389829.8467,3754.9,13772.87,34421.35,34181.5,24671.03,28447.3,13518.29,8207.89
1389829.8487,4093.46,13860.37,34411.58,34175.11,24655.49,28470.14,13639.4,8188.39
1389829.8507,4050.3,13903.57,34397.13,34169.92,24647.62,28470.61,13694.72,8179.86
1389829.8527,3613.14,13891.22,34392.41,34171.63,24650.62,28426.98,13638.26,8184.1
1389829.8547,2939.8,13789.61,34395.13,34170.3,24663.69,28375.92,13490.01,8199.6
1389829.8567,2551.7,13683.42,34402.28,34179.07,24681.38,28350.74,13353.11,8217.19
1389829.8587,2631.04,13645.51,34416.68,34191.33,24692.11,28361.99,13298.13,8225.59
1389829.8607,3054.09,13661.96,34422.69,34188.85,24684.62,28387.79,13344.0,8211.18
1389829.8627,3581.95,13736.44,34426.03,34190.37,24676.33,28411.92,13458.21,8206.08
1389829.8647,4005.24,13820.6,34411.1,34174.78,24650.62,28424.46,13583.8,8183.86
1389829.8667,4080.73,13872.43,34390.02,34148.89,24629.98,28438.33,13669.4,8164.03
1389829.8687,3768.73,13880.3,34377.29,34140.64,24623.59,28415.97,13661.82,8161.4
1389829.8707,3132.87,13817.74,34379.06,34149.22,24640.23,28377.2,13554.96,8180.43
1389829.8727,2620.13,13711.41,34392.6,34171.16,24668.84,28352.41,13397.41,8207.99
1389829.8747,2547.07,13651.23,34410.53,34195.62,24689.96,28351.83,13296.89,8230.59
1389829.8767,2897.6,13658.67,34425.31,34209.3,24697.45,28376.01,13324.12,8236.65
1389829.8787,3418.11,13729.96,34442.1,34224.23,24701.36,28414.68,13432.55,8233.5
1389829.8807,3903.48,13808.68,34429.36,34215.12,24671.22,28429.18,13551.81,8201.31
1389829.8827,4111.2,13875.53,34407.33,34183.36,24645.62,28442.15,13656.57,8181.05
1389829.8847,3944.64,13899.18,34394.6,34167.44,24636.65,28434.57,13680.41,8175.23
1389829.8867,3386.26,13858.22,34387.45,34165.29,24639.28,28401.43,13594.06,8180.76
1389829.8887,2758.5,13749.03,34389.21,34175.45,24659.54,28370.43,13442.04,8199.6
1389829.8907,2531.34,13678.41,34412.44,34205.73,24692.25,28369.53,13337.18,8225.35
1389829.8927,2772.9,13676.84,34445.19,34235.05,24716.09,28397.47,13331.94,8250.48
1389829.8947,3253.32,13719.7,34452.68,34229.19,24710.23,28424.08,13409.04,8245.71
1389829.8967,3754.62,13782.88,34440.43,34203.53,24687.34,28436.85,13517.91,8221.96
1389829.8987,4100.85,13866.95,34427.98,34186.32,24668.89,28443.29,13637.74,8202.46
1389829.9007,4055.93,13900.85,34409.62,34169.11,24655.25,28443.58,13687.76,8186.29
1389829.9027,3610.66,13879.35,34388.59,34160.62,24645.52,28402.24,13634.06,8178.76
1389829.9047,2927.92,13776.78,34386.02,34163.43,24655.73,28359.32,13489.2,8190.06
1389829.9067,2554.23,13688.8,34407.81,34193.9,24685.67,28340.82,13356.45,8221.72
1389829.9087,2633.05,13654.38,34430.46,34209.4,24708.23,28350.69,13305.14,8248.71
1389829.9107,3068.64,13683.08,34437.85,34206.16,24706.37,28385.83,13362.93,8246.57
1389829.9127,3576.28,13748.65,34433.8,34197.72,24688.44,28420.88,13472.8,8229.97
1389829.9147,4028.99,13843.39,34420.97,34184.6,24660.07,28448.49,13610.13,8207.85
1389829.9167,4104.42,13892.94,34403.04,34163.67,24640.61,28450.54,13685.18,8189.77
1389829.9187,3820.94,13905.72,34390.45,34153.18,24635.03,28424.31,13670.02,8178.95
1389829.9207,3158.86,13830.47,34387.07,34154.37,24652.77,28379.73,13548.9,8190.92
1389829.9227,2653.5,13728.43,34398.27,34182.36,24683.76,28358.84,13412.43,8215.95
1389829.9247,2550.65,13665.73,34420.02,34213.45,24707.89,28362.09,13331.22,8228.88
1389829.9267,2918.63,13675.31,34433.42,34220.37,24710.8,28390.7,13348.77,8228.92
1389829.9287,3411.82,13732.24,34441.71,34220.32,24706.27,28435.52,13447.67,8231.21
1389829.9307,3930.19,13825.47,34436.04,34203.34,24688.91,28467.61,13575.94,8217.05
1389829.9327,4101.18,13873.63,34406.09,34158.85,24651.96,28463.51,13651.56,8179.47
1389829.9347,3965.09,13908.01,34396.18,34150.18,24640.37,28457.55,13687.71,8166.12
1389829.9367,3392.12,13869.48,34391.6,34155.66,24648.14,28429.18,13609.6,8176.71
1389829.9387,2787.88,13761.09,34396.32,34169.3,24664.4,28385.55,13454.58,8190.92
1389829.9407,2516.41,13672.4,34409.57,34192.28,24683.34,28356.51,13335.85,8212.81
1389829.9427,2758.31,13657.14,34418.49,34204.06,24685.1,28372.1,13319.4,8221.48
1389829.9447,3220.32,13700.53,34427.93,34204.92,24681.81,28401.19,13396.46,8221.67
1389829.9467,3760.15,13780.07,34424.36,34192.14,24665.55,28421.69,13515.28,8211.09
1389829.9487,4080.15,13859.23,34407.67,34171.06,24643.71,28444.48,13622.81,8186.63
1389829.9507,4073.29,13906.43,34398.27,34159.62,24635.03,28459.55,13678.31,8176.66
1389829.9527,3633.69,13903.05,34391.69,34163.91,24640.94,28436.57,13645.79,8182.77
1389829.9547,2984.57,13811.4,34394.89,34180.31,24662.4,28398.8,13508.46,8202.22
1389829.9567,2566.15,13702.78,34403.38,34191.04,24683.57,28371.72,13366.32,8221.67
1389829.9587,2653.07,13664.82,34428.65,34213.36,24707.32,28381.06,13315.68,8245.28
1389829.9607,3073.98,13697.1,34443.53,34222.32,24716.57,28436.33,13375.33,8253.96
1389829.9627,3597.59,13761.43,34440.47,34212.21,24700.36,28449.82,13473.51,8238.89
1389829.9647,4037.38,13853.55,34439.14,34202.06,24685.91,28469.71,13593.91,8222.29
1389829.9667,4146.29,13918.07,34434.8,34194.43,24683.29,28473.62,13689.52,8217.29
1389829.9687,3828.91,13917.5,34401.42,34170.15,24659.59,28432.9,13672.31,8193.68
1389829.9707,3170.49,13828.71,34378.34,34159.38,24650.29,28379.11,13541.46,8183.62
1389829.9727,2642.25,13721.9,34387.16,34178.21,24669.84,28345.64,13396.79,8199.69
1389829.9747,2551.13,13667.06,34418.25,34216.74,24702.31,28357.46,13321.4,8229.4
1389829.9767,2910.14,13685.09,34439.04,34233.57,24713.04,28391.98,13353.73,8239.46
1389829.9787,3402.42,13734.68,34441.62,34226.71,24699.74,28426.46,13437.8,8231.59
1389829.9807,3917.5,13824.32,34436.99,34211.07,24676.37,28457.6,13565.3,8214.19
1389829.9827,4128.41,13890.65,34424.83,34191.14,24660.35,28481.06,13673.35,8201.74
1389829.9847,3990.94,13922.74,34408.38,34183.65,24649.86,28470.47,13711.12,8192.49
1389829.9867,3407.53,13868.05,34388.02,34173.3,24646.14,28410.1,13624.57,8189.63
1389829.9887,2797.79,13768.01,34386.4,34180.55,24664.98,28367.95,13486.24,8205.99
1389829.9907,2524.76,13677.31,34405.0,34200.53,24692.35,28354.55,13362.22,8231.45
1389829.9927,2768.95,13673.5,34425.22,34210.35,24706.89,28362.56,13334.71,8246.14
1389829.9947,3219.56,13715.13,34441.62,34215.03,24708.18,28409.39,13398.12,8246.38
1389829.9967,3764.44,13798.57,34442.24,34210.21,24689.25,28448.68,13520.67,8231.69
1389829.9987,4098.23,13881.73,34435.61,34200.43,24672.65,28483.11,13649.61,8219.24
1389830.0007,4108.48,13931.9,34425.41,34194.66,24662.64,28490.55,13715.94,8210.37
1389830.0027,3625.35,13890.98,34390.41,34169.87,24642.8,28428.94,13638.64,8185.91
1389830.0047,2973.03,13796.52,34385.02,34172.54,24656.2,28372.1,13492.35,8192.73
1389830.0072,2545.98,13691.38,34405.43,34193.57,24687.29,28343.82,13355.97,8219.62
1389830.0092,2647.16,13664.53,34432.13,34216.69,24711.42,28360.32,13314.01,8240.61
1389830.0112,3044.56,13683.42,34440.57,34217.89,24714.47,28399.76,13358.69,8241.65
1389830.0132,3591.82,13757.18,34443.76,34215.31,24700.45,28442.05,13470.32,8231.83
1389830.0152,4015.06,13843.82,34431.8,34196.71,24676.95,28468.71,13598.4,8210.76
1389830.0172,4130.98,13904.33,34406.28,34170.68,24655.11,28463.51,13682.75,8189.3
1389830.0192,3827.72,13917.97,34393.03,34163.38,24648.1,28449.01,13680.27,8182.96
1389830.0212,3207.06,13850.02,34383.54,34161.14,24651.77,28398.66,13566.69,8186.15
1389830.0232,2646.97,13731.29,34384.68,34170.49,24667.7,28357.46,13413.14,8199.84
1389830.0252,2560.57,13672.16,34404.81,34202.34,24692.01,28357.7,13330.37,8222.06
1389830.0272,2886.01,13680.56,34424.83,34218.6,24703.08,28395.32,13347.68,8224.92
1389830.0292,3408.58,13743.26,34436.28,34225.28,24702.6,28451.16,13444.38,8215.33
1389830.0312,3888.61,13824.13,34431.08,34215.69,24685.1,28486.73,13563.35,8201.12
1389830.0332,4127.55,13895.51,34416.01,34196.91,24662.35,28494.7,13660.34,8185.86
1389830.0352,3970.53,13926.51,34406.28,34188.32,24652.58,28475.14,13694.19,8191.16
1389830.0372,3429.79,13885.31,34396.46,34179.31,24656.78,28415.49,13610.08,8203.79
1389830.0387,2809.52,13787.7,34415.01,34193.19,24689.53,28387.12,13470.79,8234.84
1389830.0407,2560.14,13704.59,34436.04,34216.46,24715.09,28381.06,13358.21,8257.58
1389830.0427,2745.58,13673.26,34433.75,34214.88,24706.8,28387.5,13326.07,8246.76
1389830.0447,3211.55,13706.5,34437.47,34206.11,24696.54,28412.06,13396.31,8240.94
1389830.0467,3721.71,13779.4,34427.84,34196.91,24674.13,28434.23,13516.52,8225.11
1389830.0487,4073.29,13862.66,34412.91,34181.6,24653.63,28454.21,13633.54,8204.56
1389830.0507,4053.88,13905.38,34399.13,34162.48,24641.76,28453.5,13687.56,8190.82
1389830.0527,3647.71,13901.43,34393.7,34168.87,24649.77,28426.79,13653.23,8198.45
1389830.0547,2977.66,13808.68,34383.44,34173.3,24662.07,28385.02,13516.09,8202.6
1389830.0567,2561.76,13701.25,34391.22,34187.27,24677.33,28367.57,13375.24,8212.04
1389830.0587,2618.6,13660.72,34407.57,34197.14,24691.25,28373.24,13315.49,8228.68
1389830.0607,3044.56,13694.0,34430.46,34208.68,24705.56,28419.21,13372.14,8249.24
1389830.0627,3564.31,13763.19,34435.13,34206.2,24698.78,28440.76,13487.53,8244.9
1389830.0647,3997.52,13836.67,34413.01,34185.13,24667.08,28446.49,13601.92,8213.62
1389830.0667,4103.57,13892.13,34392.22,34163.77,24646.81,28456.6,13676.69,8190.92
1389830.0687,3833.82,13911.11,34386.21,34160.9,24645.81,28443.34,13676.84,8189.63
1389830.0707,3207.11,13841.3,34380.15,34163.62,24648.96,28401.62,13568.64,8192.97
1389830.0727,2660.32,13726.71,34389.93,34181.79,24667.7,28363.28,13410.43,8212.28
1389830.0747,2574.11,13687.42,34426.5,34223.18,24711.66,28373.86,13339.19,8254.67
1389830.0767,2898.41,13691.05,34438.8,34231.19,24723.44,28397.71,13352.35,8258.53
1389830.0787,3385.35,13733.58,34433.7,34217.89,24706.51,28424.36,13436.22,8240.03
1389830.0807,3886.22,13816.79,34433.18,34209.26,24691.11,28462.75,13564.92,8224.25
1389830.0827,4116.15,13876.73,34408.0,34181.31,24661.5,28476.72,13664.06,8196.26
1389830.0847,3967.62,13898.28,34383.59,34167.77,24639.66,28462.03,13690.85,8179.14
1389830.0867,3429.46,13867.19,34380.58,34171.49,24643.04,28419.02,13609.6,8184.96
1389830.0887,2803.52,13771.06,34395.32,34187.42,24674.32,28386.55,13472.56,8217.62
1389830.0907,2535.15,13678.74,34398.8,34188.23,24691.49,28364.38,13348.01,8231.88
1389830.0927,2730.75,13655.33,34413.34,34196.67,24702.36,28381.49,13322.02,8238.84
1389830.0947,3195.24,13686.61,34418.4,34194.47,24694.87,28399.52,13383.77,8228.26
1389830.0967,3703.26,13752.75,34418.35,34191.76,24685.81,28424.27,13489.87,8215.14
1389830.0987,4074.0,13842.16,34413.01,34181.41,24669.22,28445.44,13609.94,8197.21
1389830.1007,4063.03,13892.32,34404.81,34174.35,24659.45,28455.26,13683.23,8191.01
1389830.1027,3663.21,13892.13,34391.22,34172.25,24653.82,28426.79,13652.52,8192.02
1389830.1047,2985.05,13797.52,34390.84,34173.78,24668.74,28380.21,13512.57,8211.18
1389830.1067,2574.87,13698.1,34403.09,34182.6,24689.77,28358.56,13375.09,8232.5
1389830.1087,2620.08,13662.96,34434.23,34206.87,24717.72,28368.09,13318.64,8258.82
1389830.1107,3063.73,13708.35,34464.41,34229.14,24737.65,28411.68,13384.34,8277.32
1389830.1127,3554.39,13756.75,34452.01,34213.31,24717.0,28441.72,13489.34,8252.29
1389830.1147,4009.2,13843.73,34433.89,34197.1,24689.44,28462.08,13615.9,8215.48
1389830.1167,4087.59,13881.64,34402.09,34164.39,24661.59,28456.5,13678.22,8184.29
1389830.1187,3830.48,13891.46,34379.53,34150.27,24649.67,28425.7,13660.53,8179.0
1389830.1207,3197.81,13832.19,34384.49,34164.48,24670.37,28395.7,13564.16,8205.27
1389830.1227,2678.35,13730.24,34397.03,34181.31,24693.11,28367.76,13421.16,8230.11
1389830.1247,2543.4,13660.34,34414.72,34199.86,24708.32,28358.94,13323.79,8237.6
1389830.1267,2884.05,13666.92,34426.03,34208.11,24708.56,28382.88,13332.51,8223.44
1389830.1287,3352.12,13705.73,34420.78,34188.99,24692.11,28412.97,13410.0,8207.85
1389830.1307,3867.05,13786.13,34415.15,34173.87,24669.46,28447.54,13537.31,8200.22
1389830.1327,4087.59,13854.98,34398.61,34158.19,24650.96,28459.5,13644.46,8194.02
1389830.1347,3974.87,13885.74,34379.92,34145.84,24633.94,28439.24,13676.6,8181.24
1389830.1367,3417.87,13849.78,34371.52,34143.5,24633.79,28408.48,13601.26,8181.53
1389830.1387,2816.58,13759.81,34388.21,34165.82,24662.59,28372.01,13459.78,8209.56
1389830.1407,2544.07,13694.43,34426.07,34206.92,24708.66,28368.86,13359.64,8255.29
1389830.1427,2786.59,13697.39,34457.26,34239.82,24735.17,28404.38,13356.35,8281.33
1389830.1447,3217.36,13713.7,34439.81,34211.78,24706.65,28419.69,13405.32,8254.91
1389830.1467,3731.25,13769.25,34417.06,34185.08,24672.8,28432.8,13507.8,8220.24
1389830.1487,4065.85,13850.26,34400.42,34170.25,24653.53,28449.16,13625.53,8195.64
1389830.1507,4070.95,13894.08,34390.64,34157.61,24643.71,28452.45,13687.04,8178.81
1389830.1527,3654.67,13887.6,34380.92,34153.66,24641.28,28423.36,13648.27,8178.66
1389830.1547,3007.65,13799.24,34382.87,34165.48,24657.59,28385.4,13511.95,8195.12
1389830.1567,2574.49,13700.53,34399.8,34180.12,24686.77,28369.38,13376.33,8224.87
1389830.1587,2624.08,13657.86,34416.68,34198.38,24705.03,28377.63,13313.96,8235.5
1389830.1607,3024.63,13679.41,34424.79,34199.43,24698.74,28395.85,13357.93,8225.35
1389830.1627,3551.05,13746.69,34429.65,34204.3,24686.39,28436.47,13472.65,8213.19
1389830.1647,4004.86,13844.25,34421.35,34199.24,24667.17,28477.96,13613.89,8201.41
1389830.1667,4123.88,13901.38,34404.23,34174.4,24652.39,28471.33,13708.31,8193.97
1389830.1687,3864.19,13920.88,34392.07,34168.2,24649.29,28430.7,13711.12,8194.4
1389830.1707,3234.01,13851.79,34390.41,34171.39,24668.36,28392.13,13576.7,8212.38
1389830.1727,2678.59,13738.87,34396.6,34180.55,24692.2,28358.51,13407.99,8234.69
1389830.1747,2541.49,13664.63,34410.24,34193.57,24712.28,28355.32,13317.54,8250.62
1389830.1767,2867.51,13662.72,34412.01,34190.42,24705.32,28376.68,13326.79,8246.47
1389830.1787,3353.17,13703.54,34409.43,34182.27,24691.44,28408.34,13409.28,8235.69
1389830.1807,3873.78,13797.9,34412.67,34177.21,24677.09,28439.67,13540.32,8221.82
1389830.1827,4105.43,13872.05,34406.67,34167.48,24663.02,28459.17,13643.55,8205.32
1389830.1847,3990.08,13900.57,34393.22,34155.9,24644.81,28438.38,13676.79,8185.1
1389830.1867,3435.33,13859.42,34392.79,34156.47,24658.3,28389.65,13598.06,8197.69
1389830.1887,2838.56,13777.35,34413.68,34183.36,24696.16,28368.38,13469.13,8237.65
1389830.1907,2520.75,13673.12,34416.11,34191.9,24706.94,28349.45,13338.04,8247.0
1389830.1927,2731.94,13659.76,34429.89,34211.5,24713.66,28363.04,13319.06,8251.24
1389830.1947,3175.69,13691.86,34440.19,34215.31,24716.14,28401.0,13385.2,8251.43
1389830.1967,3714.9,13763.24,34428.51,34197.62,24689.82,28423.98,13490.44,8227.78
1389830.1987,4048.97,13837.39,34413.01,34171.44,24658.25,28434.52,13599.54,8202.7
1389830.2007,4066.18,13884.12,34393.98,34154.75,24641.76,28431.85,13662.67,8180.43
1389830.2027,3639.98,13874.2,34383.11,34157.33,24642.9,28408.44,13627.91,8167.94
1389830.2047,3007.32,13798.52,34388.4,34176.12,24663.98,28377.63,13501.84,8186.06
1389830.2067,2553.89,13693.05,34399.85,34190.56,24690.68,28368.67,13366.08,8215.48
1389830.2087,2615.12,13653.47,34413.34,34200.96,24704.08,28377.01,13317.11,8237.36
1389830.2107,2994.68,13662.05,34416.06,34198.91,24702.17,28402.14,13356.12,8239.56
1389830.2127,3524.49,13723.61,34416.39,34188.42,24686.86,28416.54,13450.81,8218.48
1389830.2147,3958.61,13811.16,34410.15,34174.02,24669.84,28424.22,13560.39,8193.88
1389830.2167,4113.82,13876.73,34398.13,34152.56,24653.25,28450.87,13660.0,8185.77
1389830.2187,3842.69,13891.98,34387.74,34143.74,24651.15,28441.67,13671.69,8190.73
1389830.2207,3232.62,13832.28,34383.73,34149.6,24661.26,28402.28,13569.98,8203.84
1389830.2227,2660.61,13727.71,34395.89,34170.92,24693.4,28372.1,13426.59,8236.08
1389830.2247,2564.19,13683.85,34436.04,34220.08,24738.51,28381.73,13349.34,8276.08
1389830.2267,2867.56,13683.03,34460.36,34236.67,24750.76,28398.8,13353.73,8286.52
1389830.2287,3355.88,13719.23,34449.87,34218.7,24727.63,28417.54,13427.31,8262.3
1389830.2308,3828.19,13779.69,34418.54,34182.98,24681.09,28428.75,13529.49,8218.81
1389830.2328,4099.18,13857.65,34410.67,34172.16,24659.11,28445.49,13640.83,8203.89
1389830.2348,3973.39,13897.13,34404.66,34163.29,24655.77,28444.82,13685.28,8196.64
1389830.2368,3444.15,13859.23,34390.64,34154.04,24654.73,28412.87,13608.46,8191.63
1389830.2388,2800.13,13755.04,34390.17,34161.38,24672.99,28386.41,13461.97,8210.23
1389830.2408,2522.95,13667.87,34408.67,34185.99,24702.36,28375.96,13340.86,8224.97
1389830.2428,2703.14,13646.75,34421.88,34199.67,24711.33,28365.19,13311.29,8232.88
1389830.2448,3168.77,13684.8,34429.94,34203.49,24704.98,28377.92,13382.72,8238.13
1389830.2468,3691.1,13765.24,34432.08,34197.86,24693.16,28427.84,13509.23,8232.02
1389830.2488,4051.5,13847.07,34415.87,34174.06,24668.17,28451.26,13628.68,8213.33
1389830.2508,4058.08,13898.14,34403.57,34161.33,24659.35,28463.46,13698.96,8201.36
1389830.2528,3670.98,13891.89,34395.03,34162.72,24658.92,28432.18,13663.39,8202.36
1389830.2548,3000.55,13795.66,34385.73,34162.81,24667.79,28372.2,13515.04,8208.66
1389830.2568,2558.99,13688.57,34400.85,34177.5,24689.3,28346.02,13370.18,8230.4
1389830.2588,2592.95,13643.6,34419.68,34194.38,24699.45,28347.45,13303.95,8238.51
1389830.2608,2998.4,13664.96,34428.51,34203.91,24701.88,28377.35,13346.29,8230.83
1389830.2628,3518.1,13733.25,34431.18,34213.17,24698.26,28417.26,13455.44,8224.54
1389830.2648,3980.78,13827.61,34427.17,34206.35,24684.34,28456.5,13586.95,8214.76
1389830.2668,4126.26,13903.05,34423.78,34187.8,24677.95,28482.01,13688.61,8210.37
1389830.2688,3876.11,13917.35,34410.91,34178.69,24671.65,28455.55,13693.62,8201.93
1389830.2708,3231.95,13837.24,34386.59,34156.85,24659.97,28384.45,13563.44,8193.16
1389830.2728,2658.13,13716.51,34386.07,34157.23,24669.46,28342.87,13404.75,8207.27
1389830.2748,2535.25,13657.71,34409.67,34180.79,24695.26,28341.11,13323.31,8233.98
1389830.2768,2841.23,13654.85,34424.45,34188.32,24707.27,28370.53,13329.46,8241.75
1389830.2788,3339.82,13704.35,34427.03,34184.03,24704.32,28404.14,13404.94,8234.31
1389830.2808,3850.84,13793.85,34425.36,34179.64,24692.59,28443.48,13533.5,8221.01
1389830.2828,4119.68,13879.83,34411.77,34167.72,24671.84,28467.28,13655.47,8203.6
1389830.2848,3993.94,13914.11,34398.94,34165.43,24663.79,28455.64,13694.1,8200.55
1389830.2868,3477.38,13880.92,34384.16,34156.04,24658.16,28417.5,13613.61,8195.21
1389830.2888,2832.51,13771.49,34389.69,34164.62,24676.47,28386.31,13464.55,8208.99
1389830.2908,2539.49,13681.17,34403.9,34189.18,24701.55,28366.9,13346.1,8232.98
1389830.2928,2713.2,13655.62,34422.35,34208.35,24713.09,28370.72,13329.41,8245.14
1389830.2948,3182.08,13691.57,34427.79,34204.63,24701.74,28400.09,13406.09,8237.65
1389830.2968,3693.29,13754.13,34422.59,34183.89,24682.67,28431.42,13504.89,8222.39
1389830.2988,4071.52,13839.53,34409.53,34162.95,24661.45,28459.41,13613.99,8198.21
1389830.3008,4059.36,13875.92,34381.11,34136.11,24633.41,28465.66,13667.59,8171.42
1389830.3028,3681.23,13878.2,34362.89,34129.77,24618.53,28443.24,13641.5,8162.88
1389830.3048,2999.97,13792.23,34363.89,34138.11,24633.74,28403.14,13508.7,8178.57
1389830.3068,2573.63,13697.05,34382.73,34164.48,24667.03,28367.81,13367.56,8206.51
1389830.3088,2588.37,13647.84,34403.71,34185.32,24693.78,28348.59,13302.71,8227.3
1389830.3108,3013.42,13677.26,34425.07,34194.9,24702.46,28389.5,13342.53,8233.93
1389830.3128,3512.91,13743.31,34431.41,34196.09,24693.68,28434.95,13452.48,8226.82
1389830.3148,3987.5,13831.33,34416.49,34177.5,24664.45,28461.79,13582.18,8202.7
1389830.3168,4095.7,13873.24,34388.5,34148.98,24638.23,28457.84,13663.82,8175.99
1389830.3188,3873.16,13898.76,34385.64,34143.5,24636.94,28440.81,13680.36,8169.37
1389830.3208,3235.48,13833.72,34378.72,34140.5,24648.24,28396.32,13572.03,8176.18
1389830.3228,2693.61,13728.57,34383.83,34154.18,24671.8,28362.56,13423.54,8185.58
1389830.3248,2533.91,13654.04,34400.85,34170.54,24693.25,28358.13,13322.4,8197.26
1389830.3267,2849.25,13651.23,34409.96,34174.68,24693.87,28382.11,13326.93,8205.99
1389830.3287,3316.45,13695.29,34415.63,34175.69,24689.92,28416.4,13404.75,8213.33
1389830.3307,3848.36,13778.5,34413.39,34170.35,24672.08,28454.45,13526.97,8206.85
1389830.3327,4082.49,13842.49,34394.08,34147.08,24648.24,28471.9,13627.96,8188.63
1389830.3347,3981.69,13872.43,34371.95,34130.96,24629.31,28458.5,13665.87,8173.51
1389830.3367,3438.47,13836.48,34361.6,34123.57,24632.7,28404.72,13593.39,8177.81
1389830.3387,2830.55,13747.88,34376.67,34146.12,24665.64,28354.84,13460.69,8207.32
1389830.3407,2522.66,13664.53,34397.46,34175.73,24698.93,28352.55,13358.17,8233.74
1389830.3427,2717.4,13647.65,34421.69,34195.14,24711.47,28371.67,13337.76,8243.18
1389830.3447,3156.14,13688.95,34437.57,34201.86,24707.89,28410.49,13401.8,8241.94
1389830.3467,3693.49,13764.91,34440.09,34201.58,24694.78,28450.21,13500.74,8233.55
1389830.3487,4055.93,13848.69,34424.12,34183.22,24674.04,28475.29,13622.19,8216.72
1389830.3507,4092.41,13899.61,34414.92,34169.73,24668.51,28480.72,13701.97,8213.95
1389830.3527,3689.81,13885.4,34396.03,34155.9,24660.92,28445.2,13656.47,8203.65
1389830.3547,3013.71,13777.21,34372.29,34145.03,24659.45,28377.49,13498.02,8198.55
1389830.3567,2560.43,13677.07,34382.78,34153.37,24681.43,28351.45,13357.45,8219.77
1389830.3587,2580.79,13632.01,34401.56,34172.78,24695.21,28351.12,13294.13,8228.78
1389830.3607,2971.7,13650.94,34409.67,34182.79,24692.82,28376.96,13335.32,8225.59
1389830.3627,3480.91,13710.17,34414.92,34181.79,24685.53,28413.49,13438.89,8220.96
1389830.3647,3949.4,13804.87,34413.96,34169.63,24673.89,28444.25,13569.6,8203.32
1389830.3667,4090.98,13865.95,34402.76,34155.47,24658.54,28461.17,13664.91,8190.82
1389830.3687,3855.61,13887.26,34388.69,34145.31,24647.14,28442.67,13672.5,8178.04
1389830.3707,3222.56,13813.02,34366.9,34131.77,24641.76,28387.22,13556.2,8170.22
1389830.3727,2665.52,13709.17,34371.57,34147.36,24665.79,28343.63,13406.14,8189.97
1389830.3747,2506.73,13638.16,34396.41,34173.3,24694.83,28336.1,13309.86,8222.77
1389830.3767,2824.45,13642.84,34411.72,34183.98,24701.79,28364.85,13321.07,8233.21
1389830.3787,3299.28,13691.33,34419.78,34185.32,24699.26,28409.53,13406.95,8232.26
1389830.3807,3830.0,13786.65,34422.97,34187.46,24684.96,28456.83,13541.27,8222.53
1389830.3827,4082.58,13859.75,34412.25,34170.35,24668.12,28483.35,13652.8,8203.75
1389830.3847,4001.0,13898.52,34399.28,34157.33,24653.44,28466.7,13697.05,8184.82
1389830.3867,3473.28,13869.05,34396.65,34158.28,24661.21,28419.07,13623.05,8193.3
1389830.3887,2869.89,13793.52,34420.26,34185.84,24700.12,28395.37,13500.07,8234.55
1389830.3908,2542.88,13697.2,34434.56,34204.2,24721.53,28379.73,13373.9,8259.77
1389830.3928,2704.81,13655.04,34422.31,34193.42,24706.65,28362.18,13321.78,8241.13
1389830.3948,3121.76,13672.12,34415.87,34183.84,24692.11,28375.01,13375.38,8225.11
1389830.3968,3670.69,13751.89,34417.49,34182.5,24679.9,28412.77,13487.67,8208.8
1389830.3988,4031.9,13834.05,34408.24,34167.72,24663.74,28446.49,13603.5,8197.36
1389830.4008,4077.1,13886.74,34386.97,34148.84,24648.19,28451.83,13676.07,8189.49
1389830.4028,3683.38,13885.88,34379.06,34146.31,24651.1,28428.03,13650.71,8191.73
1389830.4048,3053.0,13814.88,34386.26,34158.47,24670.65,28383.64,13528.63,8212.71
1389830.4068,2572.92,13702.78,34399.8,34169.63,24695.59,28351.74,13379.72,8234.07
1389830.4088,2604.06,13657.62,34418.16,34190.33,24710.8,28357.46,13312.39,8245.04
1389830.4108,2977.18,13677.6,34436.23,34199.77,24721.15,28392.41,13352.97,8255.63
1389830.4128,3499.51,13735.63,34426.65,34195.28,24699.4,28429.94,13458.35,8234.22
1389830.4148,3938.91,13812.45,34412.91,34182.84,24673.85,28455.74,13581.75,8210.33
1389830.4168,4099.8,13869.57,34397.22,34168.96,24654.92,28451.68,13660.58,8193.11
1389830.4188,3847.69,13880.92,34381.35,34153.66,24643.57,28424.74,13647.27,8182.24
1389830.4208,3258.28,13827.33,34377.91,34153.27,24654.06,28389.17,13549.71,8194.02
1389830.4228,2685.02,13728.19,34397.18,34174.88,24689.2,28367.76,13414.91,8223.53
1389830.4248,2562.95,13682.08,34437.66,34216.31,24733.55,28378.87,13339.19,8261.97
1389830.4268,2833.7,13666.68,34438.85,34212.07,24727.68,28384.26,13329.17,8251.86
1389830.4288,3314.16,13698.77,34429.65,34192.42,24699.83,28406.81,13401.65,8228.73
1389830.4308,3805.3,13772.25,34420.97,34170.44,24676.42,28434.66,13520.05,8211.14
1389830.4328,4078.77,13834.76,34400.32,34140.45,24644.76,28444.01,13622.48,8184.86
1389830.4348,3975.2,13874.2,34387.02,34140.26,24637.23,28442.91,13669.06,8179.57
1389830.4368,3484.77,13859.18,34389.07,34156.8,24651.05,28427.18,13614.23,8188.25
1389830.4388,2847.1,13766.96,34393.03,34171.39,24678.42,28398.99,13475.37,8198.79
1389830.4408,2550.27,13685.99,34419.87,34198.91,24713.95,28389.6,13363.79,8232.79
1389830.4428,2699.52,13658.33,34436.75,34213.93,24725.11,28370.43,13334.23,8249.81
1389830.4448,3135.49,13677.07,34426.12,34205.49,24709.28,28385.45,13379.86,8237.65
1389830.4468,3643.66,13741.92,34413.15,34184.7,24685.05,28426.6,13473.51,8217.96
1389830.4488,4032.28,13831.76,34407.19,34164.96,24669.36,28459.98,13603.12,8203.65
1389830.4508,4063.61,13883.16,34395.84,34146.84,24656.87,28466.04,13680.27,8192.02
1389830.4528,3700.21,13885.83,34388.64,34146.5,24653.06,28433.04,13656.67,8192.21
1389830.4548,3047.85,13810.4,34390.98,34151.56,24672.08,28389.03,13532.93,8213.66
1389830.4568,2588.32,13707.4,34402.42,34172.06,24695.59,28356.22,13389.49,8238.03
1389830.4588,2585.08,13654.09,34414.34,34191.56,24705.7,28347.59,13307.62,8244.52
1389830.4608,2971.74,13672.45,34428.36,34202.15,24711.99,28380.78,13342.48,8247.66
1389830.4628,3480.82,13736.11,34428.74,34196.81,24702.74,28418.26,13447.57,8239.41
1389830.4648,3950.64,13829.66,34426.12,34188.27,24690.58,28450.68,13584.14,8231.07
1389830.4668,4094.12,13879.25,34393.84,34153.04,24656.97,28451.11,13665.3,8198.55
1389830.4688,3862.81,13885.21,34375.34,34131.53,24639.9,28430.61,13661.34,8180.76
1389830.4708,3268.15,13833.57,34374.0,34139.07,24650.82,28397.18,13564.64,8189.39
1389830.4728,2692.6,13727.71,34384.16,34163.1,24674.28,28366.28,13418.2,8210.9
1389830.4748,2545.98,13676.12,34415.11,34204.01,24707.37,28352.93,13332.46,8238.03
1389830.4768,2841.52,13682.7,34441.43,34225.04,24724.92,28385.83,13342.43,8250.86
1389830.4788,3320.03,13719.7,34435.09,34203.87,24708.8,28419.02,13416.39,8232.26
1389830.4808,3811.98,13789.66,34426.84,34183.74,24686.63,28444.15,13528.01,8210.09
1389830.4828,4098.7,13870.91,34415.15,34167.34,24664.21,28455.45,13640.79,8188.87
1389830.4848,4007.67,13909.25,34409.62,34163.15,24659.68,28452.83,13687.66,8186.01
1389830.4868,3520.58,13886.74,34404.57,34156.85,24659.78,28420.98,13624.38,8191.35
1389830.4888,2862.31,13776.97,34397.61,34153.18,24672.32,28378.87,13475.23,8210.23
1389830.4908,2547.26,13687.23,34407.48,34168.63,24691.3,28356.56,13357.12,8233.6
1389830.4928,2685.59,13656.28,34418.3,34184.13,24702.12,28356.51,13326.46,8242.32
1389830.4948,3146.93,13692.24,34427.07,34192.28,24703.41,28383.35,13392.88,8237.36
1389830.4968,3677.56,13772.2,34431.46,34194.19,24700.02,28429.8,13513.23,8231.02
1389830.4988,4081.68,13871.05,34420.69,34180.26,24681.52,28468.09,13643.74,8213.71
1389830.5008,4088.93,13913.54,34405.66,34160.28,24668.6,28474.91,13705.35,8205.13
1389830.5028,3742.74,13924.08,34407.14,34168.68,24678.14,28464.61,13666.25,8216.86
1389830.5048,3050.61,13819.93,34392.89,34159.33,24680.09,28402.95,13518.48,8214.33
1389830.5068,2596.66,13715.13,34406.14,34183.08,24704.89,28361.32,13378.29,8238.03
1389830.5088,2576.54,13660.72,34422.83,34208.83,24723.91,28357.65,13309.05,8259.87
1389830.5108,2973.03,13671.78,34420.69,34202.2,24712.52,28363.37,13338.71,8250.48
1389830.5128,3468.94,13728.62,34421.59,34195.67,24699.31,28405.34,13441.14,8234.31
1389830.5148,3955.27,13819.65,34415.34,34181.36,24675.85,28445.15,13574.32,8207.51
1389830.5168,4091.22,13872.48,34401.85,34154.8,24654.82,28460.41,13663.91,8183.81
1389830.5188,3894.76,13893.94,34389.79,34147.03,24644.57,28450.02,13679.6,8174.37
1389830.5208,3269.53,13837.67,34381.25,34145.26,24654.06,28405.53,13582.66,8184.82
1389830.5228,2707.15,13733.39,34391.6,34155.99,24682.14,28355.03,13425.07,8212.38
1389830.5248,2508.59,13649.89,34400.37,34163.29,24698.07,28315.45,13298.18,8228.3
1389830.5268,2825.4,13659.76,34422.26,34184.56,24711.52,28355.08,13315.97,8241.32
1389830.5288,3288.32,13700.58,34424.74,34181.89,24701.79,28387.45,13395.36,8234.41
1389830.5308,3809.64,13776.49,34409.43,34164.62,24675.32,28407.48,13514.19,8207.61
1389830.5328,4066.8,13844.4,34384.3,34137.3,24651.63,28420.98,13618.76,8181.81
1389830.5348,3995.9,13881.97,34369.95,34127.05,24642.85,28420.36,13665.11,8167.84
1389830.5368,3494.02,13866.47,34369.04,34131.53,24657.44,28401.28,13617.71,8179.81
1389830.5388,2886.53,13792.09,34395.65,34168.68,24699.6,28388.6,13498.88,8222.87
1389830.5408,2532.15,13683.7,34401.18,34178.21,24710.56,28354.84,13359.45,8227.3
1389830.5428,2680.35,13646.46,34411.39,34193.0,24711.66,28359.89,13313.96,8222.58
1389830.5448,3115.18,13681.7,34420.54,34201.1,24711.18,28396.04,13376.38,8226.06
1389830.5468,3659.63,13760.47,34426.79,34198.19,24699.12,28435.66,13495.73,8223.77
1389830.5488,4034.76,13843.97,34408.95,34171.06,24669.7,28453.02,13612.56,8202.12
1389830.5508,4079.2,13889.22,34385.92,34147.65,24645.47,28452.73,13679.7,8183.81
1389830.5528,3714.04,13886.17,34364.94,34124.76,24626.93,28422.55,13651.09,8171.03
1389830.5548,3056.86,13803.58,34360.79,34122.14,24638.8,28381.02,13522.53,8180.67
1389830.5568,2580.93,13703.82,34374.43,34143.36,24666.03,28353.65,13379.24,8206.32
1389830.5588,2577.31,13656.24,34400.28,34169.11,24693.49,28365.14,13307.19,8229.3
1389830.5608,2971.51,13678.93,34415.39,34180.55,24701.12,28402.62,13344.43,8226.35
1389830.5628,3473.23,13729.48,34415.68,34183.7,24690.92,28434.28,13439.85,8215.09
1389830.5648,3955.7,13821.89,34415.25,34176.88,24677.33,28461.75,13573.08,8201.17
1389830.5668,4122.11,13888.98,34406.81,34159.43,24669.75,28474.38,13679.32,8198.41
1389830.5688,3911.11,13909.01,34383.06,34147.65,24656.35,28449.2,13688.9,8188.11
1389830.5708,3286.7,13842.68,34373.29,34136.87,24657.82,28403.24,13575.46,8193.92
1389830.5728,2721.83,13745.69,34389.36,34151.03,24681.86,28382.02,13431.07,8215.86
1389830.5748,2535.92,13671.59,34415.82,34180.45,24710.85,28387.03,13331.08,8240.61
1389830.5768,2834.94,13677.22,34436.37,34201.44,24727.87,28401.81,13338.76,8256.82
1389830.5788,3287.41,13703.73,34425.31,34185.37,24707.37,28410.49,13412.0,8239.94
1389830.5808,3817.08,13787.41,34417.92,34171.63,24685.34,28436.85,13538.98,8218.0
1389830.5828,4088.31,13864.28,34411.05,34155.18,24669.84,28452.73,13650.47,8203.51
1389830.5848,4030.04,13909.63,34400.85,34150.46,24658.87,28458.65,13693.29,8193.88
1389830.5868,3511.38,13872.67,34381.11,34139.3,24656.25,28421.26,13621.43,8185.53
1389830.5888,2872.85,13769.2,34373.14,34142.07,24666.26,28373.91,13463.64,8186.72
1389830.5908,2506.69,13667.87,34390.69,34171.3,24691.54,28355.12,13333.8,8211.61
1389830.5928,2684.02,13654.19,34415.68,34193.81,24708.66,28369.1,13315.97,8228.92
1389830.5948,3115.42,13682.13,34431.6,34187.89,24706.84,28405.38,13380.48,8230.02
1389830.5968,3658.49,13755.99,34427.84,34174.11,24687.34,28425.79,13480.62,8218.05
1389830.5988,4030.75,13831.57,34409.1,34147.27,24659.35,28439.57,13579.89,8200.69
1389830.6008,4104.95,13891.03,34398.04,34136.25,24652.44,28448.54,13673.64,8195.93
1389830.6028,3733.92,13898.71,34387.78,34133.58,24653.72,28425.17,13662.63,8194.35
1389830.6048,3093.58,13823.32,34385.07,34142.31,24669.22,28384.07,13535.02,8202.51
1389830.6068,2590.42,13708.4,34391.36,34155.13,24691.06,28355.55,13383.44,8222.06
1389830.6088,2594.04,13660.62,34409.05,34178.64,24707.37,28365.85,13320.83,8237.74
1389830.6108,2954.82,13673.45,34421.64,34188.89,24712.28,28407.24,13358.74,8237.08
1389830.6128,3482.49,13737.11,34427.12,34187.23,24705.84,28448.25,13456.44,8230.02
1389830.6148,3934.67,13813.16,34404.66,34163.86,24670.7,28457.6,13572.5,8195.97
1389830.6168,4113.01,13868.72,34379.39,34148.17,24639.13,28432.75,13658.19,8169.56
1389830.6188,3891.56,13893.89,34377.53,34150.84,24639.9,28430.94,13681.94,8171.42
1389830.6208,3316.93,13852.36,34381.58,34155.8,24654.58,28406.15,13591.82,8189.11
1389830.6228,2723.5,13745.17,34394.03,34159.38,24681.86,28369.05,13441.37,8219.1
1389830.6248,2544.55,13663.1,34407.48,34171.78,24699.88,28349.55,13334.09,8238.94
1389830.6268,2802.75,13655.19,34417.59,34177.88,24708.27,28370.96,13336.09,8244.9
1389830.6288,3310.97,13716.37,34436.61,34198.0,24718.48,28421.12,13427.93,8250.62
1389830.6308,3811.41,13789.89,34420.35,34176.07,24689.87,28446.39,13538.6,8219.82
1389830.6328,4098.7,13858.61,34393.6,34147.74,24655.87,28463.27,13635.45,8185.44
1389830.6348,4016.02,13895.23,34378.44,34133.68,24642.04,28463.13,13683.94,8171.46
1389830.6368,3532.03,13869.53,34369.57,34124.14,24640.13,28431.66,13618.42,8170.51
1389830.6388,2875.42,13771.3,34377.15,34138.25,24660.11,28387.98,13464.6,8186.01
1389830.6408,2536.25,13681.7,34404.0,34171.49,24687.15,28366.38,13337.33,8205.37
1389830.6428,2671.15,13657.95,34422.69,34189.42,24704.03,28370.96,13306.91,8222.82
1389830.6448,3108.22,13677.5,34417.25,34176.5,24700.12,28385.93,13351.25,8223.49
1389830.6468,3617.95,13741.97,34407.52,34152.8,24681.33,28418.02,13458.92,8209.75
1389830.6488,4026.13,13829.76,34401.47,34142.4,24665.79,28451.21,13589.77,8193.78
1389830.6508,4070.71,13874.96,34379.25,34120.09,24642.38,28450.3,13659.15,8168.84
1389830.6528,3730.82,13884.07,34375.1,34119.37,24644.33,28430.66,13645.36,8168.17
1389830.6548,3080.89,13809.35,34371.57,34130.86,24659.16,28391.98,13523.58,8182.43
1389830.6568,2593.28,13700.58,34375.81,34150.22,24677.42,28357.08,13378.67,8206.89
1389830.6588,2579.4,13655.19,34396.37,34172.83,24696.83,28355.41,13305.33,8228.59
1389830.6608,2954.53,13673.93,34419.25,34182.93,24709.13,28394.42,13336.85,8242.32
1389830.6628,3470.9,13737.82,34422.31,34190.94,24699.45,28437.38,13443.9,8233.83
1389830.6648,3932.24,13810.16,34398.42,34172.83,24659.3,28454.35,13558.96,8197.07
1389830.6668,4111.24,13877.35,34382.73,34150.32,24639.04,28465.56,13650.71,8179.24
1389830.6688,3899.05,13893.99,34370.33,34136.54,24627.12,28447.2,13663.48,8166.17
1389830.6708,3308.49,13843.44,34357.93,34128.72,24633.17,28398.09,13569.31,8168.13
1389830.6728,2712.06,13736.77,34371.09,34141.02,24667.93,28369.38,13426.45,8198.07
1389830.6748,2527.76,13666.82,34391.6,34169.15,24699.6,28364.95,13328.12,8226.68
1389830.6768,2790.88,13658.24,34402.37,34182.22,24704.51,28383.93,13316.54,8233.88
1389830.6788,3279.88,13706.54,34408.57,34180.41,24694.11,28415.59,13396.55,8226.01
1389830.6808,3798.87,13795.28,34418.49,34179.12,24685.39,28451.54,13528.78,8220.82
1389830.6828,4106.47,13876.82,34402.37,34157.09,24665.26,28477.43,13647.46,8197.5
1389830.6848,4013.59,13903.09,34380.39,34131.1,24644.43,28472.71,13687.37,8172.23
1389830.6868,3542.85,13878.97,34365.99,34118.94,24638.08,28432.47,13624.62,8164.84
1389830.6888,2868.22,13768.2,34361.13,34118.08,24651.24,28379.54,13470.94,8179.19
1389830.6908,2527.9,13675.21,34379.92,34139.54,24678.38,28367.19,13345.1,8205.37
1389830.6928,2646.73,13642.03,34397.03,34159.0,24694.25,28382.35,13301.61,8220.86
1389830.6948,3095.2,13669.83,34404.19,34161.24,24686.63,28403.29,13353.54,8214.28
1389830.6968,3600.55,13733.91,34401.23,34158.38,24671.94,28409.72,13462.4,8198.74
1389830.6988,4024.27,13834.19,34399.47,34158.76,24656.73,28431.09,13596.87,8184.24
1389830.7008,4068.9,13883.54,34388.88,34148.84,24643.71,28439.91,13674.59,8177.42
1389830.7028,3753.33,13903.33,34386.59,34158.42,24646.86,28434.66,13671.59,8185.2
1389830.7048,3087.23,13822.32,34388.4,34162.86,24663.12,28392.46,13549.85,8201.12
1389830.7068,2617.03,13725.33,34404.76,34181.98,24698.31,28364.71,13413.62,8234.41
1389830.7088,2581.55,13680.51,34434.61,34210.97,24733.31,28377.44,13347.2,8273.27
1389830.7108,2972.98,13694.38,34445.91,34217.31,24735.12,28400.14,13371.42,8276.37
1389830.7128,3442.76,13735.77,34434.42,34198.96,24710.52,28428.61,13460.07,8248.43
1389830.7148,3934.15,13816.36,34420.88,34180.84,24679.85,28455.31,13581.28,8211.8
1389830.7168,4081.25,13862.33,34392.74,34148.89,24648.24,28449.06,13658.33,8179.28
1389830.7188,3899.53,13881.16,34372.1,34133.87,24629.45,28428.75,13667.87,8164.07
1389830.7208,3290.99,13824.89,34357.03,34126.86,24634.79,28381.26,13567.5,8174.33
1389830.7228,2717.26,13724.14,34359.6,34134.77,24658.06,28345.64,13425.73,8198.83
1389830.7248,2503.4,13656.33,34386.07,34163.29,24685.43,28347.78,13323.98,8224.97
1389830.7268,2790.88,13656.05,34413.53,34183.41,24695.73,28378.87,13321.83,8237.89
1389830.7288,3257.56,13701.01,34423.07,34187.94,24690.44,28418.21,13409.43,8236.79
1389830.7308,3794.38,13785.55,34422.07,34183.08,24678.23,28448.63,13529.45,8226.63
1389830.7328,4082.78,13863.14,34410.96,34167.15,24666.65,28473.14,13634.4,8207.89
1389830.7348,4035.85,13904.33,34399.32,34160.05,24658.3,28474.62,13694.91,8193.4
1389830.7368,3548.96,13883.78,34388.83,34152.27,24657.16,28435.42,13642.12,8190.68
1389830.7388,2899.55,13777.59,34383.59,34149.32,24666.31,28374.01,13480.43,8197.31
1389830.7408,2532.91,13683.03,34396.8,34164.86,24692.2,28345.64,13331.13,8220.34
1389830.7428,2667.86,13657.81,34417.06,34186.41,24711.56,28365.28,13301.18,8239.79
1389830.7448,3093.15,13685.61,34420.35,34181.5,24705.37,28399.42,13366.03,8235.17
1389830.7468,3625.44,13758.37,34425.31,34186.32,24696.93,28439.76,13481.09,8228.26
1389830.7488,4025.51,13843.82,34412.05,34171.73,24673.18,28458.41,13597.3,8205.56
1389830.7508,4060.65,13861.09,34366.95,34122.42,24627.69,28437.71,13643.84,8162.26
1389830.7528,3722.95,13861.51,34352.16,34106.16,24618.06,28400.85,13625.39,8152.77
1389830.7548,3080.61,13790.66,34364.04,34118.42,24644.23,28361.04,13503.98,8170.32
1389830.7568,2606.11,13702.06,34387.16,34152.23,24682.81,28346.3,13373.0,8196.88
1389830.7588,2568.39,13650.56,34407.24,34184.41,24706.51,28356.32,13303.81,8222.49
1389830.7608,2944.9,13672.88,34420.07,34199.67,24711.52,28388.31,13344.0,8238.55
1389830.7628,3436.61,13722.47,34420.4,34190.18,24698.31,28419.07,13436.46,8236.93
1389830.7648,3925.61,13809.97,34405.19,34170.68,24672.65,28447.87,13562.39,8210.47
1389830.7668,4096.27,13866.47,34387.4,34147.7,24653.63,28451.21,13653.95,8186.48
1389830.7688,3919.65,13897.47,34380.01,34141.21,24643.57,28434.14,13675.5,8173.56
1389830.7708,3327.56,13852.07,34382.25,34152.94,24661.5,28401.52,13586.24,8189.82
1389830.7728,2756.88,13756.94,34391.17,34173.06,24685.2,28372.34,13446.33,8211.57
1389830.7748,2522.9,13670.02,34400.71,34190.52,24699.36,28357.7,13335.8,8224.54
1389830.7768,2798.03,13665.73,34417.44,34197.14,24711.9,28378.82,13331.84,8236.22
1389830.7788,3252.17,13698.77,34419.83,34186.32,24705.13,28407.15,13397.22,8231.21
1389830.7808,3795.29,13788.42,34420.02,34182.03,24689.58,28441.62,13526.3,8220.63
1389830.7828,4068.23,13854.46,34401.09,34154.18,24662.16,28452.59,13627.96,8198.55
1389830.7848,4040.86,13906.39,34397.99,34150.03,24658.64,28461.98,13692.52,8198.5
1389830.7868,3572.04,13899.61,34405.66,34162.53,24677.57,28441.15,13647.84,8219.86
1389830.7888,2925.3,13797.81,34391.55,34149.84,24676.52,28381.83,13500.17,8222.82
1389830.7908,2520.37,13684.08,34394.6,34161.91,24689.11,28345.49,13353.73,8236.55
1389830.7928,2659.23,13662.53,34414.72,34188.47,24705.56,28358.89,13311.96,8251.24
1389830.7948,3063.39,13681.37,34422.93,34194.38,24706.56,28380.59,13356.16,8244.75
1389830.7968,3600.31,13750.03,34421.59,34183.32,24694.49,28412.87,13468.93,8225.73
1389830.7988,3991.27,13831.76,34412.29,34169.53,24676.33,28443.67,13590.77,8204.84
1389830.8008,4078.44,13887.84,34397.75,34157.14,24659.68,28449.35,13669.3,8185.34
1389830.8028,3742.31,13898.61,34394.32,34160.67,24662.69,28430.04,13659.05,8188.49
1389830.8048,3122.52,13833.48,34397.75,34170.92,24675.32,28396.75,13545.32,8205.22
1389830.8072,2606.25,13728.67,34411.29,34188.51,24699.07,28385.07,13406.71,8229.73
