TimeStamp,P3,P4,F3,F4,FP1,I1,I2,FP2
1389938.7828,2774.43,12823.01,34136.2,33335.4,24622.01,28059.01,12575.53,8685.49
1389938.7848,3232.24,12862.25,34140.59,33333.45,24615.2,28086.71,12658.79,8678.72
1389938.7868,3738.02,12936.07,34135.15,33318.09,24598.6,28119.71,12781.81,8657.12
1389938.7888,3963.66,13006.26,34125.28,33298.69,24584.34,28141.45,12891.2,8640.96
1389938.7908,3861.09,13039.07,34109.74,33284.81,24571.8,28127.82,12929.06,8632.57
1389938.7928,3317.64,13007.64,34096.72,33276.51,24573.23,28088.81,12856.77,8638.62
1389938.7948,2710.39,12913.85,34099.54,33289.01,24596.46,28044.99,12705.61,8658.17
1389938.7968,2413.51,12827.73,34109.07,33303.41,24613.19,28017.91,12576.44,8672.48
1389938.7988,2603.86,12795.12,34115.22,33307.79,24613.96,28009.56,12534.57,8670.0
1389938.8008,3039.65,12814.67,34115.32,33300.5,24605.42,28035.31,12592.51,8658.36
1389938.8028,3566.07,12886.05,34118.04,33294.11,24591.5,28086.86,12719.97,8647.16
1389938.8048,3916.84,12977.46,34117.85,33290.49,24575.95,28122.86,12852.86,8634.23
1389938.8068,3915.79,13012.51,34098.53,33274.7,24554.4,28116.52,12909.41,8615.69
1389938.8088,3498.7,12997.58,34074.69,33254.34,24539.38,28076.13,12860.73,8597.61
1389938.8108,2859.31,12921.0,34081.94,33263.5,24565.51,28030.3,12728.5,8619.5
1389938.8128,2435.11,12830.4,34089.43,33278.04,24587.16,27997.74,12592.13,8642.15
1389938.8148,2480.08,12791.44,34104.92,33299.35,24607.09,28017.0,12523.51,8658.74
1389938.8168,2892.11,12816.38,34114.17,33311.32,24610.95,28074.46,12573.63,8657.08
1389938.8188,3397.7,12874.08,34113.22,33311.37,24602.13,28116.13,12678.34,8649.49
1389938.8208,3834.44,12953.0,34096.67,33297.07,24575.52,28114.51,12803.08,8624.6
1389938.8228,3949.31,13002.44,34085.66,33279.8,24560.12,28096.63,12891.68,8612.44
1389938.8248,3713.32,13031.87,34080.75,33275.75,24556.59,28084.95,12897.06,8611.87
1389938.8268,3080.8,12970.59,34078.79,33276.56,24566.75,28040.94,12781.29,8627.46
1389938.8288,2549.46,12870.84,34087.52,33291.34,24586.63,28005.56,12635.8,8651.64
1389938.8308,2412.18,12798.07,34102.4,33307.37,24605.37,27995.69,12539.53,8664.7
1389938.8328,2757.6,12814.38,34130.39,33336.02,24625.78,28027.44,12565.19,8680.96
1389938.8348,3220.51,12855.44,34137.87,33330.59,24623.87,28067.93,12651.78,8675.24
1389938.8368,3722.0,12920.57,34112.41,33295.54,24587.92,28090.38,12761.64,8640.43
1389938.8388,3940.06,12974.12,34092.1,33260.64,24557.16,28104.26,12861.21,8610.92
1389938.8408,3835.06,13008.98,34077.51,33247.38,24543.81,28094.49,12897.83,8599.95
1389938.8428,3284.22,12974.17,34068.73,33249.19,24550.01,28055.24,12817.67,8608.72
1389938.8448,2686.31,12882.9,34071.12,33258.87,24564.13,28012.14,12671.9,8620.55
1389938.8468,2392.24,12800.46,34093.53,33287.72,24592.4,27997.4,12554.74,8644.92
1389938.8488,2605.58,12787.87,34110.22,33306.89,24601.89,28017.33,12536.48,8655.6
1389938.8508,3027.49,12811.38,34114.98,33306.51,24593.55,28052.86,12598.13,8648.35
1389938.8528,3577.47,12893.15,34120.95,33311.23,24581.82,28093.53,12719.73,8622.36
1389938.8548,3910.45,12964.68,34111.65,33297.3,24564.84,28118.76,12837.08,8604.72
1389938.8568,3927.66,13010.74,34094.86,33280.81,24552.06,28117.66,12901.69,8605.91
1389938.8588,3509.24,13007.07,34081.75,33273.61,24557.45,28085.38,12863.97,8617.59
1389938.8608,2883.34,12933.68,34078.65,33282.0,24574.52,28038.65,12734.99,8637.52
1389938.8628,2431.35,12827.78,34090.19,33294.01,24598.27,28009.04,12595.94,8660.99
1389938.8648,2498.63,12788.2,34103.49,33304.31,24609.9,28016.14,12535.48,8670.28
1389938.8668,2880.43,12803.84,34116.61,33309.13,24612.81,28058.34,12577.25,8672.86
1389938.8688,3414.11,12870.98,34130.05,33318.48,24611.19,28112.7,12692.64,8671.81
1389938.8708,3824.95,12931.01,34105.73,33295.16,24578.86,28119.85,12800.17,8635.9
1389938.8728,3956.99,12978.08,34079.89,33269.84,24548.96,28110.89,12879.9,8603.81
1389938.8748,3686.0,12996.39,34072.59,33263.88,24546.77,28080.8,12886.1,8602.76
1389938.8768,3078.03,12938.41,34067.87,33254.44,24555.64,28036.07,12778.47,8616.78
1389938.8788,2529.57,12845.66,34083.13,33273.03,24591.4,28007.08,12637.57,8649.3
1389938.8808,2431.92,12792.87,34110.84,33306.22,24614.96,28008.89,12551.83,8670.0
1389938.8828,2726.94,12789.2,34120.23,33313.04,24614.48,28029.83,12554.65,8673.1
1389938.8848,3211.31,12823.96,34117.37,33308.13,24600.99,28059.96,12632.61,8663.37
1389938.8868,3696.01,12894.87,34107.64,33293.16,24580.96,28090.0,12749.39,8639.24
1389938.8888,3953.93,12961.82,34095.53,33272.99,24562.22,28108.55,12856.53,8616.59
1389938.8908,3827.29,12996.53,34083.18,33268.88,24551.44,28099.92,12893.96,8609.11
1389938.8928,3306.91,12972.64,34075.74,33271.46,24556.74,28062.92,12820.63,8617.07
1389938.8948,2686.17,12886.62,34082.56,33283.91,24580.43,28029.78,12680.34,8639.81
1389938.8968,2417.9,12812.9,34105.97,33312.37,24610.9,28014.42,12565.19,8668.61
1389938.8988,2606.11,12801.36,34125.48,33324.96,24624.02,28028.21,12541.25,8680.06
1389938.9008,3050.09,12825.06,34130.58,33317.52,24617.1,28062.39,12604.81,8671.95
1389938.9028,3558.59,12889.34,34123.42,33304.79,24599.6,28090.77,12714.05,8661.22
1389938.9048,3914.88,12969.5,34117.51,33297.02,24586.73,28118.8,12838.65,8649.16
1389938.9068,3934.57,13023.52,34113.27,33290.49,24581.15,28122.57,12908.6,8640.77
1389938.9088,3553.06,13034.54,34116.8,33302.22,24592.12,28098.82,12878.09,8648.44
1389938.9108,2892.3,12947.37,34102.73,33295.3,24598.41,28055.29,12743.0,8651.93
1389938.9128,2446.6,12832.21,34094.86,33290.49,24603.32,28024.82,12592.94,8652.59
1389938.9148,2482.61,12790.49,34101.11,33300.17,24606.52,28022.44,12525.51,8657.36
1389938.9168,2869.99,12797.07,34107.26,33301.07,24604.75,28046.8,12558.03,8654.4
1389938.9188,3378.58,12855.48,34108.02,33296.64,24595.69,28068.07,12663.13,8645.49
1389938.9208,3813.22,12938.17,34102.21,33292.35,24577.72,28086.33,12790.92,8628.7
1389938.9228,3955.46,13003.16,34090.9,33286.05,24561.6,28107.79,12890.05,8615.88
1389938.9248,3702.26,13023.28,34086.37,33283.29,24560.65,28091.91,12892.77,8615.35
1389938.9268,3089.38,12963.96,34077.46,33272.84,24566.13,28042.37,12779.24,8622.31
1389938.9288,2536.77,12861.87,34084.32,33276.94,24586.54,28008.18,12631.66,8645.54
1389938.9308,2443.84,12816.24,34112.46,33307.08,24615.05,28022.1,12554.69,8675.19
1389938.9328,2746.49,12818.15,34137.25,33327.77,24625.73,28059.68,12565.57,8684.35
1389938.9348,3233.39,12860.92,34142.69,33330.02,24616.63,28085.76,12648.39,8668.23
1389938.9368,3710.46,12924.1,34129.1,33315.14,24593.74,28095.63,12762.79,8640.39
1389938.9388,3975.58,13003.88,34120.28,33306.08,24579.24,28127.01,12882.76,8629.99
1389938.9408,3841.69,13024.62,34098.82,33290.87,24558.02,28114.85,12914.09,8614.73
1389938.9428,3327.37,12995.91,34086.71,33285.0,24558.98,28070.36,12840.75,8606.82
1389938.9448,2698.47,12904.55,34097.06,33302.45,24590.83,28040.6,12703.09,8628.61
1389938.9468,2432.49,12831.64,34121.14,33331.59,24625.35,28023.91,12586.88,8668.57
1389938.9488,2609.63,12812.33,34133.77,33341.36,24636.27,28038.84,12555.12,8689.31
1389938.9508,3067.88,12844.18,34134.15,33337.64,24627.64,28079.8,12618.3,8681.2
1389938.9528,3555.35,12895.82,34121.09,33317.52,24600.56,28109.22,12719.44,8650.21
1389938.9548,3912.59,12962.1,34097.34,33286.43,24568.51,28119.23,12827.54,8619.5
1389938.9568,3901.15,12999.49,34082.89,33266.6,24554.21,28091.86,12891.63,8614.11
1389938.9588,3539.94,13017.04,34092.24,33275.61,24566.7,28074.32,12869.65,8629.8
1389938.9608,2875.38,12937.21,34099.63,33281.71,24594.12,28040.94,12733.08,8653.55
1389938.9628,2472.64,12846.28,34115.27,33303.22,24617.63,28022.67,12598.23,8676.1
1389938.9648,2496.91,12799.46,34123.76,33325.01,24627.64,28032.93,12534.72,8688.98
1389938.9668,2899.12,12817.15,34129.96,33334.21,24624.73,28062.49,12570.76,8687.07
1389938.9688,3372.81,12860.11,34121.33,33330.25,24606.76,28077.27,12660.55,8669.14
1389938.9708,3828.38,12933.92,34105.11,33309.61,24578.72,28086.76,12777.95,8643.29
1389938.9728,3938.1,12983.32,34088.09,33276.75,24560.5,28093.25,12865.83,8623.08
1389938.9748,3709.36,13011.22,34084.47,33268.5,24560.69,28083.85,12875.94,8624.13
1389938.9768,3077.56,12955.05,34081.89,33273.99,24572.28,28037.69,12765.6,8634.23
1389938.9788,2561.66,12868.64,34100.25,33304.74,24606.37,28013.61,12629.99,8659.32
1389938.9808,2424.53,12807.23,34123.81,33327.58,24626.64,28012.61,12542.2,8684.25
1389938.9828,2753.16,12807.08,34135.68,33338.6,24628.64,28033.45,12551.02,8685.02
1389938.9848,3220.99,12849.9,34141.74,33340.98,24621.11,28065.78,12637.66,8673.86
1389938.9868,3739.02,12937.4,34146.93,33347.99,24609.14,28109.84,12774.52,8660.7
1389938.9888,3976.39,13013.79,34140.54,33334.16,24599.7,28145.6,12892.06,8658.84
1389938.9908,3870.82,13044.26,34118.18,33312.23,24582.87,28143.12,12930.11,8647.16
1389938.9928,3330.52,13007.69,34099.63,33296.02,24581.34,28084.47,12852.96,8643.87
1389938.9948,2701.38,12901.45,34094.48,33291.01,24593.26,28024.39,12692.12,8652.88
1389938.9968,2408.03,12821.44,34110.84,33308.7,24616.72,28010.47,12566.19,8673.96
1389938.9988,2608.25,12795.45,34121.71,33319.81,24622.87,28027.59,12537.77,8678.87
1389939.0008,3036.79,12814.67,34118.94,33308.08,24609.52,28059.15,12599.76,8667.99
1389939.0028,3562.16,12889.43,34129.43,33311.8,24609.95,28095.58,12721.4,8664.51
1389939.0048,3920.08,12969.35,34119.28,33296.45,24591.5,28119.04,12841.32,8644.3
1389939.0072,3942.82,13018.18,34107.88,33288.96,24580.67,28131.87,12913.75,8637.05
1389939.0092,3544.0,13020.47,34095.01,33286.29,24580.58,28102.97,12881.09,8640.15
1389939.0112,2884.53,12925.2,34080.94,33279.9,24585.77,28048.52,12735.65,8638.91
1389939.0132,2459.1,12835.89,34098.3,33303.22,24610.38,28014.52,12603.67,8662.13
1389939.0152,2490.0,12787.15,34111.41,33326.44,24622.59,28011.95,12538.48,8677.39
1389939.0172,2881.1,12799.79,34114.56,33325.25,24616.05,28038.46,12571.43,8674.19
1389939.0192,3377.68,12851.19,34116.03,33315.95,24604.51,28078.42,12674.38,8663.66
1389939.0212,3841.69,12943.51,34117.46,33300.07,24592.55,28119.81,12806.27,8652.21
1389939.0232,3954.74,12993.96,34104.07,33276.94,24577.76,28129.01,12892.44,8637.62
1389939.0252,3725.0,13023.57,34096.53,33278.09,24572.95,28113.51,12905.41,8632.09
1389939.0272,3107.36,12975.36,34104.4,33298.78,24593.88,28084.28,12804.03,8642.48
1389939.0292,2576.02,12877.51,34106.07,33311.99,24614.38,28042.8,12660.7,8658.6
1389939.0312,2425.62,12800.55,34115.32,33322.29,24628.69,28024.34,12558.37,8678.96
1389939.0332,2753.31,12805.7,34129.0,33334.55,24628.93,28046.56,12569.14,8686.59
1389939.0352,3210.4,12835.69,34127.86,33327.96,24614.53,28071.98,12643.86,8677.01
1389939.0372,3716.42,12912.7,34121.33,33311.9,24595.79,28099.68,12763.17,8658.98
1389939.0388,3940.82,12971.55,34104.4,33285.0,24575.19,28120.9,12869.69,8640.58
1389939.0408,3855.18,13011.08,34090.67,33274.13,24563.36,28118.52,12904.6,8624.6
1389939.0428,3307.68,12975.03,34079.41,33268.17,24567.18,28076.37,12818.96,8622.5
1389939.0448,2714.21,12897.11,34095.05,33292.54,24596.03,28043.8,12687.59,8651.93
1389939.0468,2420.85,12822.77,34122.19,33324.39,24629.17,28024.96,12578.58,8684.35
1389939.0488,2639.1,12814.48,34142.5,33342.65,24644.33,28039.74,12556.94,8696.94
1389939.0508,3047.75,12825.68,34137.87,33326.44,24629.64,28071.31,12612.01,8688.78
1389939.0528,3573.08,12884.48,34128.19,33308.56,24601.37,28106.74,12718.35,8665.09
1389939.0548,3904.3,12949.42,34113.17,33290.39,24579.48,28129.77,12830.78,8637.62
1389939.0568,3927.33,12990.24,34094.24,33281.09,24563.03,28121.86,12897.45,8610.3
1389939.0588,3520.16,12994.72,34090.33,33288.53,24571.47,28092.53,12866.36,8617.93
1389939.0608,2898.31,12929.49,34095.24,33305.94,24591.45,28064.16,12740.52,8643.91
1389939.0628,2443.7,12824.2,34099.73,33314.42,24609.04,28036.84,12598.28,8662.08
1389939.0648,2497.82,12782.62,34115.03,33320.19,24623.02,28011.04,12533.24,8677.91
1389939.0668,2877.43,12800.89,34128.48,33316.14,24626.45,28038.41,12573.29,8687.54
1389939.0688,3407.43,12862.83,34133.01,33318.24,24618.77,28081.61,12678.1,8683.35
1389939.0708,3824.62,12936.64,34123.19,33309.65,24596.17,28101.88,12794.31,8660.37
1389939.0728,3978.92,13004.97,34115.51,33305.22,24583.53,28124.24,12894.73,8643.29
1389939.0748,3720.47,13026.14,34102.11,33296.35,24575.62,28105.41,12900.07,8640.1
1389939.0768,3116.32,12969.64,34092.0,33292.63,24582.77,28059.87,12787.87,8648.92
1389939.0788,2555.42,12869.74,34099.82,33307.37,24604.23,28031.02,12642.81,8667.52
1389939.0808,2449.42,12814.52,34119.42,33329.2,24627.59,28035.12,12556.84,8691.93
1389939.0828,2748.63,12815.14,34132.06,33338.12,24633.6,28066.07,12564.37,8695.79
1389939.0848,3230.48,12855.44,34139.11,33336.4,24625.07,28102.12,12649.16,8678.72
1389939.0868,3720.76,12932.25,34144.02,33332.88,24613.43,28129.58,12775.52,8668.85
1389939.0888,3972.91,12993.91,34130.77,33308.27,24593.98,28145.32,12877.8,8649.4
1389939.0908,3845.64,13021.52,34107.64,33289.87,24573.71,28122.95,12908.65,8623.98
1389939.0928,3326.56,12992.05,34092.67,33288.86,24574.57,28075.27,12832.4,8622.17
1389939.0948,2704.05,12897.06,34093.19,33305.7,24599.89,28030.16,12685.78,8644.15
1389939.0968,2428.72,12820.39,34110.12,33329.59,24627.83,28021.05,12574.39,8667.85
1389939.0988,2606.34,12800.84,34118.23,33333.83,24633.32,28032.69,12543.49,8681.73
1389939.1008,3051.71,12824.68,34126.0,33324.05,24626.69,28059.87,12598.52,8687.16
1389939.1028,3563.45,12888.96,34123.19,33309.61,24608.42,28094.68,12705.33,8678.39
1389939.1048,3912.5,12958.67,34108.88,33291.34,24587.82,28119.14,12819.53,8659.89
1389939.1068,3932.1,13013.36,34098.87,33279.85,24577.33,28121.71,12896.59,8648.11
1389939.1088,3550.15,13022.95,34098.77,33286.29,24580.86,28103.97,12869.55,8650.92
1389939.1108,2910.81,12944.13,34097.39,33293.92,24592.35,28059.92,12737.7,8660.22
1389939.1128,2466.39,12839.94,34103.64,33308.46,24613.19,28031.4,12595.8,8677.91
1389939.1148,2517.84,12812.28,34132.15,33333.54,24632.84,28041.22,12545.21,8701.75
1389939.1168,2897.69,12820.44,34140.3,33331.68,24628.45,28058.82,12578.44,8699.13
1389939.1188,3390.22,12864.88,34129.15,33314.61,24607.57,28082.66,12670.61,8672.95
1389939.1208,3817.84,12931.44,34113.22,33296.83,24588.21,28113.08,12787.3,8644.25
1389939.1228,3958.7,12988.19,34095.72,33278.71,24571.61,28122.38,12874.8,8626.18
1389939.1248,3713.51,13012.74,34093.62,33285.67,24571.37,28115.66,12888.0,8627.27
1389939.1268,3118.9,12970.26,34091.43,33294.82,24585.97,28078.18,12791.35,8643.39
1389939.1288,2567.82,12870.84,34098.2,33307.37,24609.47,28045.66,12648.87,8668.38
1389939.1308,2458.43,12815.91,34115.6,33332.97,24628.36,28045.61,12562.28,8688.12
1389939.1328,2748.68,12811.85,34128.81,33336.31,24633.32,28064.73,12566.38,8691.17
1389939.1348,3229.52,12847.71,34126.24,33322.05,24620.63,28073.03,12639.71,8671.24
1389939.1368,3707.55,12916.61,34122.33,33313.9,24603.51,28101.97,12758.11,8652.16
1389939.1388,3962.56,12978.7,34100.58,33287.43,24575.28,28116.61,12855.25,8625.79
1389939.1408,3826.43,12999.73,34074.98,33263.59,24555.4,28098.06,12883.24,8606.1
1389939.1428,3328.75,12981.85,34070.11,33270.03,24560.65,28058.77,12813.05,8618.17
1389939.1448,2702.38,12890.86,34075.93,33287.58,24583.39,28016.71,12667.13,8644.11
1389939.1468,2427.96,12814.09,34092.14,33313.28,24600.37,28005.56,12548.16,8666.99
1389939.1488,2602.48,12796.07,34110.79,33334.64,24610.76,28027.39,12524.84,8672.62
1389939.1508,3063.2,12836.27,34118.42,33337.45,24607.57,28072.07,12600.71,8662.89
1389939.1528,3560.59,12898.83,34122.95,33321.38,24599.84,28114.04,12721.25,8656.88
1389939.1548,3940.58,12983.37,34125.14,33310.99,24591.45,28137.54,12847.43,8651.83
1389939.1568,3940.82,13024.67,34117.56,33296.88,24583.77,28138.93,12911.61,8649.49
1389939.1588,3571.18,13023.28,34098.77,33287.72,24575.57,28098.25,12876.46,8644.3
1389939.1608,2902.94,12935.12,34090.38,33285.76,24581.34,28050.38,12741.04,8650.69
1389939.1628,2488.99,12840.51,34098.53,33302.36,24599.27,28026.3,12604.62,8667.61
1389939.1648,2504.44,12797.02,34111.41,33316.9,24614.96,28027.44,12537.77,8682.63
1389939.1668,2906.42,12816.86,34117.75,33320.1,24617.15,28057.01,12572.43,8683.4
1389939.1688,3386.88,12864.93,34118.08,33308.94,24605.13,28092.82,12670.42,8671.67
1389939.1708,3841.59,12939.6,34107.5,33292.87,24582.53,28105.64,12790.97,8649.59
1389939.1728,3954.27,12993.24,34095.43,33274.8,24570.75,28121.43,12885.33,8634.0
1389939.1748,3733.73,13019.28,34088.09,33274.85,24572.09,28111.08,12897.78,8628.32
1389939.1768,3112.75,12965.97,34080.89,33275.89,24581.1,28068.02,12791.11,8636.71
1389939.1788,2577.07,12858.82,34073.26,33283.29,24588.44,28023.68,12637.24,8645.39
1389939.1808,2426.29,12790.87,34080.7,33296.73,24599.08,28017.95,12540.72,8657.93
1389939.1828,2750.4,12798.69,34104.16,33314.71,24615.34,28055.1,12554.03,8662.42
1389939.1848,3217.17,12848.0,34119.18,33319.95,24616.44,28099.11,12638.05,8654.07
1389939.1868,3716.95,12915.18,34116.99,33306.75,24599.56,28108.5,12754.82,8641.53
1389939.1888,3954.94,12982.99,34109.88,33291.63,24587.4,28127.24,12865.45,8637.62
1389939.1908,3871.16,13030.77,34107.02,33292.77,24585.44,28137.12,12918.09,8641.91
1389939.1928,3344.35,13003.3,34097.06,33286.96,24583.15,28093.53,12843.66,8644.82
1389939.1948,2721.21,12895.49,34095.34,33289.53,24593.74,28040.17,12688.92,8657.6
1389939.1968,2420.14,12811.23,34108.98,33304.22,24613.86,28013.61,12564.99,8678.34
1389939.1988,2619.46,12799.84,34134.96,33320.48,24631.65,28036.31,12540.96,8696.13
1389939.2008,3050.28,12827.92,34146.07,33324.53,24627.97,28068.78,12605.81,8692.03
1389939.2028,3564.31,12890.63,34144.45,33323.91,24614.58,28118.14,12723.35,8678.48
1389939.2048,3918.08,12966.21,34126.81,33304.31,24592.07,28144.51,12839.94,8652.59
1389939.2068,3936.67,13010.98,34112.55,33296.49,24583.72,28154.85,12914.71,8642.48
1389939.2088,3551.1,13013.03,34099.49,33283.91,24579.77,28125.48,12886.53,8634.62
1389939.2108,2907.47,12931.11,34099.44,33283.81,24597.6,28062.73,12747.38,8653.26
1389939.2128,2470.21,12825.78,34094.29,33282.9,24607.57,28002.89,12591.98,8665.75
1389939.2148,2487.66,12774.85,34101.54,33292.82,24617.44,27996.88,12522.46,8677.01
1389939.2168,2895.4,12804.94,34121.09,33308.7,24627.64,28052.09,12580.68,8685.78
1389939.2188,3383.73,12853.58,34120.56,33300.93,24615.43,28090.34,12679.01,8671.86
1389939.2208,3832.91,12930.25,34107.26,33281.28,24588.02,28110.75,12798.69,8643.58
1389939.2228,3945.54,12975.74,34089.24,33262.4,24567.8,28115.85,12882.38,8619.6
1389939.2248,3723.43,13006.74,34080.99,33267.45,24562.17,28104.02,12895.06,8616.83
1389939.2268,3113.65,12956.19,34088.04,33281.14,24582.15,28075.89,12796.17,8637.81
1389939.2288,2582.03,12859.35,34091.62,33293.97,24597.5,28042.03,12647.2,8652.83
1389939.2308,2432.01,12794.26,34110.03,33311.7,24617.87,28029.02,12551.17,8671.28
1389939.2328,2758.65,12800.65,34129.1,33333.35,24627.97,28042.84,12557.6,8680.54
1389939.2348,3207.35,12835.84,34133.39,33328.82,24625.73,28075.27,12635.42,8676.43
1389939.2368,3720.38,12920.05,34131.48,33319.24,24608.9,28115.28,12765.27,8663.13
1389939.2388,3944.06,12982.51,34117.61,33298.78,24589.54,28142.6,12871.7,8650.59
1389939.2408,3866.58,13022.38,34108.45,33284.0,24579.77,28141.45,12914.71,8643.49
1389939.2428,3332.81,12990.76,34102.35,33281.04,24584.68,28095.63,12839.99,8646.78
1389939.2448,2734.95,12901.93,34102.01,33290.44,24599.13,28032.83,12693.5,8661.41
1389939.2468,2417.8,12811.38,34103.59,33296.54,24613.91,28010.32,12567.28,8674.57
1389939.2488,2616.93,12793.49,34109.79,33306.27,24616.48,28026.58,12534.52,8672.43
1389939.2508,3036.4,12823.73,34122.04,33311.61,24615.29,28068.74,12601.85,8668.61
1389939.2528,3573.08,12899.26,34124.09,33311.23,24607.38,28111.18,12725.35,8645.68
1389939.2548,3921.22,12981.94,34120.09,33304.98,24595.03,28146.32,12853.1,8637.43
1389939.2568,3958.89,13029.77,34103.68,33291.58,24576.86,28147.84,12925.29,8629.7
1389939.2588,3561.97,13028.53,34098.77,33290.1,24577.53,28113.94,12888.86,8637.1
1389939.2608,2936.32,12955.67,34104.07,33307.13,24591.83,28070.26,12755.3,8655.22
1389939.2629,2490.38,12860.44,34116.75,33330.35,24618.77,28054.57,12622.07,8684.68
1389939.2649,2541.45,12821.44,34131.91,33347.52,24632.22,28057.63,12557.56,8696.99
1389939.2669,2906.51,12827.97,34136.78,33340.55,24630.5,28081.23,12587.45,8694.94
1389939.2689,3420.4,12881.33,34138.25,33325.91,24616.86,28121.71,12694.22,8682.3
1389939.2709,3838.92,12952.52,34123.57,33303.74,24587.92,28132.63,12812.33,8653.21
1389939.2729,3989.98,13008.88,34108.07,33285.76,24567.99,28129.63,12900.64,8640.19
1389939.2749,3739.5,13028.38,34096.96,33281.23,24561.46,28113.75,12906.03,8634.43
1389939.2769,3153.56,12985.8,34098.1,33295.25,24581.72,28073.79,12805.51,8650.02
1389939.2789,2584.84,12880.23,34101.54,33304.12,24606.9,28034.17,12654.12,8670.38
1389939.2809,2461.58,12817.34,34122.04,33323.05,24632.17,28022.29,12558.84,8693.41
1389939.2829,2762.94,12825.63,34136.68,33339.46,24640.18,28056.29,12575.96,8704.71
1389939.2849,3239.49,12864.02,34135.68,33333.5,24626.78,28089.53,12658.03,8694.13
1389939.2869,3725.48,12936.02,34129.39,33321.0,24612.0,28112.13,12775.57,8666.47
1389939.2889,3989.08,13008.74,34119.51,33314.66,24597.84,28129.63,12883.52,8640.53
1389939.2909,3867.63,13032.72,34097.77,33294.63,24577.14,28117.71,12916.8,8618.88
1389939.2929,3357.32,13008.64,34092.0,33289.82,24574.9,28081.13,12847.38,8630.75
1389939.2949,2741.72,12926.68,34102.63,33304.41,24592.31,28053.1,12716.49,8655.79
1389939.2969,2456.19,12848.33,34122.66,33327.73,24616.29,28039.17,12603.76,8682.25
1389939.2989,2620.55,12822.3,34136.97,33340.41,24634.55,28046.09,12568.28,8695.17
1389939.3009,3054.57,12841.37,34144.69,33338.12,24645.95,28077.08,12623.55,8702.14
1389939.3029,3576.14,12906.98,34140.73,33322.86,24630.02,28111.51,12735.99,8691.41
1389939.3049,3924.32,12975.84,34119.23,33292.63,24596.88,28126.39,12842.75,8659.98
1389939.3069,3950.21,13032.25,34108.31,33285.34,24583.68,28137.83,12919.43,8649.21
1389939.3089,3574.42,13040.88,34112.65,33298.02,24594.21,28122.0,12899.54,8661.94
1389939.3109,2939.03,12971.45,34116.22,33309.61,24617.48,28075.89,12775.9,8683.63
1389939.3129,2491.24,12867.36,34121.04,33329.4,24639.32,28038.79,12628.99,8704.9
1389939.3149,2521.8,12822.44,34135.49,33350.42,24653.91,28040.36,12561.23,8716.78
1389939.3169,2900.51,12834.22,34150.13,33364.44,24659.83,28070.88,12594.03,8714.72
1389939.3189,3409.05,12890.25,34149.17,33367.64,24651.86,28102.35,12693.6,8696.46
1389939.3209,3843.07,12964.15,34135.01,33349.28,24633.84,28129.96,12817.05,8679.87
1389939.3229,3992.65,13027.62,34124.04,33328.68,24619.15,28142.12,12911.61,8674.86
1389939.3249,3744.17,13047.98,34117.46,33318.57,24614.53,28125.48,12918.62,8681.49
1389939.3269,3148.51,13003.92,34122.14,33321.77,24632.22,28092.2,12823.2,8705.09
1389939.3289,2589.18,12898.78,34129.58,33330.35,24652.77,28052.33,12676.62,8725.79
1389939.3309,2471.64,12836.31,34145.93,33348.33,24669.46,28037.22,12581.16,8741.05
1389939.3329,2764.75,12837.27,34165.2,33364.78,24687.77,28065.88,12589.5,8755.92
1389939.3349,3253.08,12878.47,34164.77,33362.77,24684.96,28103.88,12676.53,8747.72
1389939.3369,3728.2,12947.61,34153.42,33346.7,24668.6,28135.92,12794.93,8728.79
1389939.3389,3992.7,13017.99,34135.73,33328.92,24646.24,28153.47,12903.02,8706.76
1389939.3409,3872.11,13050.46,34125.67,33324.87,24632.46,28146.94,12936.31,8692.07
1389939.3429,3374.62,13020.71,34115.27,33322.34,24629.26,28104.83,12860.92,8685.64
1389939.3449,2734.28,12915.9,34116.7,33322.15,24642.95,28058.44,12706.47,8698.99
1389939.3469,2440.41,12828.78,34128.34,33339.5,24660.26,28025.34,12581.54,8712.48
1389939.3489,2612.78,12811.42,34149.08,33360.01,24678.81,28043.13,12552.07,8724.5
1389939.3509,3085.04,12858.63,34170.92,33373.65,24682.95,28094.49,12630.27,8730.7
1389939.3529,3588.01,12933.92,34177.02,33371.17,24676.14,28147.56,12754.01,8726.74
1389939.3549,3963.42,13010.46,34159.28,33349.04,24652.39,28176.69,12874.41,8711.67
1389939.3569,3952.69,13039.64,34132.82,33324.15,24630.79,28150.99,12928.39,8692.89
1389939.3589,3585.15,13047.79,34122.8,33322.67,24629.17,28111.13,12900.88,8694.41
1389939.3609,2924.25,12968.35,34122.28,33329.87,24650.29,28071.12,12770.46,8713.91
1389939.3629,2497.77,12864.54,34128.19,33345.08,24667.46,28031.02,12624.79,8732.46
1389939.3649,2508.16,12814.71,34142.64,33362.58,24680.43,28034.12,12556.55,8743.72
1389939.3669,2907.85,12834.12,34150.56,33365.97,24681.14,28068.12,12598.61,8743.43
1389939.3689,3383.78,12877.42,34143.4,33345.37,24666.26,28101.88,12692.74,8724.83
1389939.3709,3855.23,12965.68,34145.74,33332.64,24654.11,28144.74,12823.11,8710.81
1389939.3729,3988.41,13033.11,34137.92,33318.57,24646.14,28167.82,12920.57,8707.33
1389939.3749,3769.21,13064.34,34131.34,33324.34,24638.94,28150.61,12926.96,8703.19
1389939.3769,3141.93,13008.64,34128.96,33328.68,24645.33,28079.7,12815.43,8712.1
1389939.3789,2606.34,12908.27,34140.78,33345.51,24664.83,28051.62,12667.8,8729.03
1389939.3809,2458.38,12847.04,34160.76,33368.69,24686.24,28060.11,12577.01,8747.91
1389939.3829,2767.85,12837.98,34166.24,33371.74,24687.87,28076.94,12575.29,8747.24
1389939.3849,3231.95,12879.75,34169.01,33374.12,24680.19,28115.56,12658.03,8739.04
1389939.3869,3749.42,12965.87,34172.63,33375.46,24668.74,28153.09,12791.73,8732.03
1389939.3889,3983.02,13026.57,34155.8,33348.85,24641.42,28158.29,12900.26,8707.95
1389939.3909,3881.5,13052.27,34138.25,33333.4,24621.63,28127.24,12928.15,8687.21
1389939.3929,3371.38,13031.25,34133.15,33331.59,24633.32,28084.9,12858.77,8692.89
1389939.3949,2750.3,12933.78,34129.58,33337.88,24654.11,28045.8,12714.63,8705.52
1389939.3969,2455.14,12856.44,34146.03,33361.58,24680.43,28032.59,12598.09,8728.08
1389939.3989,2642.3,12835.41,34163.53,33377.22,24692.25,28053.24,12573.86,8747.29
1389939.4009,3080.08,12861.78,34165.77,33364.92,24686.86,28081.23,12636.85,8746.2
1389939.4029,3587.63,12922.81,34163.15,33353.0,24671.03,28121.9,12747.67,8734.89
1389939.4049,3944.54,12999.87,34144.07,33334.21,24645.28,28147.46,12873.08,8713.91
1389939.4069,3962.28,13042.26,34129.24,33319.95,24630.6,28144.36,12944.18,8700.9
1389939.4089,3589.3,13050.03,34120.75,33319.57,24626.16,28118.33,12915.8,8697.99
1389939.4109,2934.03,12967.64,34120.75,33327.73,24640.23,28079.47,12778.62,8710.58
1389939.4129,2510.64,12879.56,34134.58,33352.0,24666.22,28059.53,12646.1,8734.85
1389939.4149,2529.67,12833.79,34154.99,33377.65,24685.86,28067.93,12582.02,8747.44
1389939.4169,2918.24,12845.9,34158.52,33382.13,24683.24,28089.24,12613.77,8738.9
1389939.4189,3405.14,12890.86,34155.47,33377.37,24671.27,28117.18,12706.23,8726.31
1389939.4209,3872.35,12985.85,34154.99,33370.21,24657.82,28157.14,12842.56,8720.45
1389939.4229,3994.66,13044.5,34144.79,33355.76,24641.52,28173.02,12936.98,8710.05
1389939.4249,3774.79,13066.87,34128.24,33335.55,24625.45,28150.28,12940.79,8695.79
1389939.4269,3147.98,13002.21,34115.56,33319.91,24628.55,28101.78,12826.49,8697.13
1389939.4289,2621.94,12912.51,34123.04,33338.88,24655.73,28068.69,12684.49,8722.12
1389939.4309,2478.98,12853.19,34149.6,33374.27,24689.73,28071.36,12591.84,8749.77
1389939.4329,2795.12,12850.76,34159.47,33380.46,24692.87,28085.38,12597.85,8748.96
1389939.4349,3240.59,12879.04,34158.9,33369.07,24678.19,28109.36,12671.14,8734.61
1389939.4369,3769.16,12968.02,34169.3,33367.54,24669.55,28154.81,12805.8,8730.22
1389939.4389,4004.48,13027.1,34156.23,33339.98,24648.1,28175.31,12907.27,8714.72
1389939.4409,3917.12,13059.19,34135.87,33324.58,24625.83,28163.87,12943.46,8695.22
1389939.4429,3384.11,13031.2,34127.95,33322.39,24630.07,28115.66,12872.36,8698.85
1389939.4449,2780.34,12943.65,34127.05,33333.4,24651.39,28063.73,12728.22,8716.3
1389939.4469,2463.25,12862.25,34142.5,33355.86,24678.95,28048.76,12606.43,8739.9
1389939.4489,2665.09,12846.42,34161.38,33371.88,24689.92,28063.25,12577.68,8749.1
1389939.4509,3076.74,12871.74,34167.44,33369.55,24686.15,28097.11,12640.48,8743.91
1389939.4529,3613.19,12946.08,34167.48,33366.49,24671.89,28144.27,12764.41,8728.17
1389939.4549,3951.12,13012.84,34150.18,33342.22,24646.14,28167.2,12876.94,8700.32
1389939.4569,3989.27,13060.38,34136.11,33328.73,24631.22,28165.63,12943.84,8688.02
1389939.4589,3600.55,13066.67,34133.34,33336.02,24637.56,28142.36,12913.18,8694.17
1389939.4609,2978.71,12999.54,34136.97,33348.47,24654.73,28100.35,12784.29,8711.29
1389939.4629,2517.84,12898.64,34141.26,33360.1,24669.17,28067.26,12641.1,8725.12
1389939.4649,2554.56,12854.77,34156.37,33374.27,24676.28,28063.49,12570.67,8729.13
1389939.4669,2926.25,12864.45,34172.01,33375.08,24674.99,28095.87,12605.1,8730.7
1389939.4689,3444.48,12921.1,34178.02,33377.79,24666.98,28137.26,12710.24,8729.84
1389939.4709,3873.3,13000.63,34166.53,33369.12,24650.0,28156.67,12836.55,8716.01
1389939.4729,4023.74,13051.08,34146.6,33342.32,24627.21,28150.75,12920.52,8695.84
1389939.4749,3772.78,13068.73,34129.58,33328.68,24620.97,28144.36,12928.82,8690.55
1389939.4769,3190.18,13026.72,34133.39,33338.65,24642.76,28123.76,12837.36,8709.0
1389939.4789,2632.05,12933.59,34148.41,33358.63,24673.8,28100.3,12699.94,8733.94
1389939.4809,2500.63,12864.07,34164.24,33376.6,24690.87,28062.78,12599.99,8746.53
1389939.4829,2782.01,12857.82,34169.39,33377.22,24686.05,28074.22,12597.04,8745.39
1389939.4849,3265.52,12901.02,34177.69,33371.12,24677.57,28118.18,12686.87,8742.91
1389939.4869,3761.53,12982.89,34180.6,33363.97,24669.51,28153.66,12815.19,8734.13
1389939.4889,4032.9,13057.42,34177.21,33362.68,24659.78,28179.74,12927.68,8711.72
1389939.4909,3928.57,13094.09,34163.15,33354.1,24646.91,28181.46,12971.36,8689.12
1389939.4929,3411.72,13061.19,34147.55,33348.14,24643.66,28142.65,12892.87,8689.6
1389939.4949,2781.77,12967.16,34148.17,33359.72,24664.07,28099.06,12744.67,8714.96
1389939.4969,2479.74,12885.33,34161.09,33381.85,24684.15,28076.84,12622.31,8741.05
1389939.4989,2647.21,12863.49,34166.72,33381.04,24685.24,28082.33,12592.94,8745.05
1389939.5009,3079.94,12881.85,34163.38,33365.97,24671.41,28098.92,12649.11,8737.57
1389939.5029,3601.31,12946.04,34158.04,33347.9,24649.96,28122.95,12759.78,8722.69
1389939.5049,3959.99,13017.8,34151.61,33332.78,24630.55,28146.46,12875.7,8704.85
1389939.5069,3991.65,13070.78,34143.12,33324.34,24623.68,28156.9,12948.23,8692.12
1389939.5089,3605.99,13071.49,34133.82,33326.06,24624.88,28130.25,12916.85,8689.55
1389939.5109,2960.49,12987.04,34117.99,33321.67,24628.36,28076.65,12781.14,8688.02
1389939.5129,2507.35,12883.33,34120.52,33335.88,24649.19,28047.47,12638.33,8703.66
1389939.5149,2543.12,12847.95,34138.64,33359.63,24669.7,28052.24,12580.16,8726.69
1389939.5169,2916.48,12858.11,34149.56,33364.35,24672.46,28082.04,12618.5,8730.79
1389939.5189,3437.76,12922.77,34158.76,33365.68,24661.88,28131.01,12717.39,8722.45
1389939.5209,3879.36,13002.83,34158.52,33356.86,24650.15,28174.74,12841.13,8708.29
1389939.5229,4044.53,13076.26,34155.56,33351.23,24649.67,28206.54,12955.09,8705.9
1389939.5249,3799.92,13094.62,34143.69,33344.08,24646.09,28190.04,12961.48,8702.42
1389939.5269,3192.47,13035.63,34129.29,33336.26,24643.57,28132.39,12846.38,8702.09
1389939.5289,2616.69,12916.9,34120.61,33333.73,24652.15,28081.85,12680.87,8711.77
1389939.5309,2481.51,12849.0,34129.58,33349.42,24663.21,28055.48,12579.87,8725.31
1389939.5329,2766.56,12845.37,34145.17,33363.01,24672.13,28071.26,12584.88,8727.98
1389939.5349,3256.56,12890.67,34152.18,33364.11,24668.03,28107.22,12670.14,8719.64
1389939.5369,3747.42,12969.83,34159.43,33363.25,24658.73,28150.23,12801.12,8711.91
1389939.5389,4029.42,13048.22,34146.69,33343.08,24637.99,28170.3,12915.28,8697.27
1389939.5409,3907.2,13078.83,34133.1,33323.58,24626.69,28154.57,12953.04,8690.26
1389939.5429,3415.16,13059.19,34133.25,33320.57,24634.36,28126.43,12891.77,8699.89
1389939.5449,2771.76,12963.58,34139.35,33329.63,24660.21,28085.24,12744.91,8718.68
1389939.5469,2479.74,12876.18,34144.93,33346.7,24676.71,28061.73,12615.49,8730.56
1389939.5489,2626.04,12845.9,34152.32,33355.76,24682.05,28070.02,12579.97,8733.32
1389939.5509,3068.45,12862.87,34145.36,33348.04,24664.6,28089.96,12633.99,8715.44
1389939.5529,3571.32,12929.87,34145.41,33341.89,24652.53,28124.72,12748.29,8705.52
1389939.5549,3961.23,13021.42,34146.07,33338.69,24643.52,28162.29,12882.0,8697.08
1389939.5569,3971.82,13063.53,34134.92,33328.63,24631.74,28168.63,12952.14,8687.21
1389939.5589,3615.43,13069.82,34126.48,33330.54,24629.31,28139.74,12928.06,8684.78
1389939.5609,2956.15,12992.86,34128.77,33338.84,24648.29,28095.82,12796.12,8703.95
1389939.5629,2530.24,12902.26,34144.26,33359.72,24673.8,28067.35,12652.59,8732.32
1389939.5649,2536.15,12862.87,34166.77,33376.89,24695.3,28075.22,12588.79,8752.3
1389939.5669,2948.38,12890.48,34186.99,33387.71,24704.75,28119.76,12636.42,8755.64
1389939.5689,3427.94,12941.08,34181.17,33379.08,24682.91,28160.34,12736.37,8734.85
1389939.5709,3890.8,13014.6,34165.1,33355.19,24650.67,28174.26,12854.53,8707.43
1389939.5729,4014.21,13067.77,34146.74,33332.35,24632.27,28167.54,12939.88,8690.45
1389939.5749,3798.2,13087.89,34138.16,33328.2,24630.93,28150.51,12948.23,8689.31
1389939.5769,3180.17,13032.49,34131.01,33333.26,24645.0,28112.8,12842.56,8701.13
1389939.5789,2645.45,12942.7,34141.26,33357.62,24672.84,28092.29,12700.42,8720.64
1389939.5809,2489.38,12873.46,34156.8,33376.6,24693.59,28088.91,12603.52,8727.84
1389939.5829,2779.05,12851.62,34155.18,33367.35,24688.15,28084.85,12596.89,8723.02
1389939.5849,3239.39,12886.86,34158.23,33356.58,24682.95,28094.77,12675.53,8728.12
1389939.5869,3762.77,12974.65,34168.25,33361.82,24673.99,28149.42,12808.75,8731.13
1389939.5889,4022.74,13058.28,34171.11,33358.86,24661.02,28184.13,12929.39,8722.02
1389939.5909,3934.05,13096.95,34159.47,33351.47,24645.67,28178.12,12974.22,8705.76
1389939.5929,3430.89,13084.7,34153.37,33350.47,24647.62,28152.61,12916.85,8710.91
1389939.5949,2811.29,12984.85,34153.47,33350.04,24660.3,28120.52,12770.56,8724.55
1389939.5969,2479.22,12878.23,34150.56,33348.04,24676.8,28079.32,12625.08,8730.41
1389939.5989,2642.58,12843.56,34160.19,33358.58,24695.35,28066.45,12577.25,8742.38
1389939.6009,3081.04,12870.36,34167.44,33359.2,24693.78,28099.78,12637.04,8733.8
1389939.6029,3583.34,12928.68,34161.52,33343.32,24672.46,28129.44,12744.33,8706.38
1389939.6049,3951.5,13006.97,34147.93,33324.63,24646.67,28144.17,12863.92,8682.16
1389939.6069,3978.35,13050.03,34136.92,33310.47,24629.88,28145.94,12934.5,8669.71
1389939.6089,3625.39,13065.82,34136.25,33316.95,24630.12,28127.15,12920.05,8672.05
1389939.6109,2972.51,12990.76,34135.68,33325.82,24646.91,28091.1,12793.11,8689.31
1389939.6129,2532.34,12894.3,34136.54,33331.83,24659.4,28057.24,12650.44,8698.89
1389939.6149,2540.25,12844.37,34152.42,33346.75,24674.56,28055.15,12579.73,8711.86
1389939.6169,2930.45,12859.35,34165.29,33343.56,24675.61,28080.9,12615.49,8710.05
1389939.6189,3419.54,12911.7,34171.97,33337.5,24665.93,28123.1,12716.49,8703.14
1389939.6209,3891.37,12996.63,34159.57,33324.44,24644.9,28160.58,12848.0,8681.63
1389939.6229,4016.92,13046.22,34140.11,33307.46,24624.16,28170.06,12934.64,8659.03
1389939.6249,3794.38,13067.2,34124.57,33298.31,24614.72,28146.13,12938.45,8643.77
1389939.6269,3175.4,13010.69,34120.8,33299.35,24621.39,28105.26,12833.98,8653.31
1389939.6289,2644.11,12919.95,34130.86,33314.18,24639.32,28076.6,12694.79,8672.86
1389939.6309,2473.93,12848.57,34149.94,33330.64,24662.69,28066.92,12594.03,8693.65
1389939.6329,2780.63,12844.47,34156.28,33330.4,24664.02,28075.13,12591.89,8693.51
1389939.6349,3236.53,12879.52,34158.04,33322.48,24655.01,28115.47,12675.53,8686.5
1389939.6369,3766.01,12965.01,34156.47,33312.28,24628.83,28164.77,12808.13,8665.99
1389939.6389,4002.86,13028.19,34138.83,33291.34,24605.23,28183.85,12912.75,8645.92
1389939.6409,3912.12,13053.61,34110.5,33267.45,24582.25,28153.38,12942.65,8621.17
1389939.6429,3376.06,13016.65,34092.14,33255.63,24578.81,28106.03,12864.45,8615.83
1389939.6449,2763.08,12925.15,34093.34,33267.17,24597.55,28053.53,12719.82,8633.14
1389939.6469,2435.68,12831.55,34108.88,33287.67,24618.2,28037.69,12595.42,8652.59
1389939.6489,2635.05,12819.91,34133.1,33312.28,24633.46,28057.91,12570.24,8668.33
1389939.6509,3065.73,12852.48,34156.09,33323.96,24645.47,28098.97,12642.1,8676.24
1389939.6529,3591.3,12913.23,34152.46,33311.61,24627.74,28122.76,12748.2,8656.5
1389939.6549,3927.47,12976.93,34133.25,33291.63,24601.37,28140.21,12853.19,8633.57
1389939.6569,3978.49,13027.38,34117.42,33284.33,24585.06,28144.74,12918.0,8619.5
1389939.6589,3590.01,13032.53,34107.55,33281.66,24579.29,28117.23,12884.33,8614.83
1389939.6609,2963.83,12965.11,34111.5,33288.72,24598.03,28074.08,12769.03,8630.52
1389939.6629,2501.3,12871.7,34127.38,33310.61,24628.26,28041.03,12634.56,8660.7
1389939.6649,2546.74,12834.88,34147.55,33335.12,24647.05,28049.85,12571.67,8681.2
1389939.6669,2917.96,12853.81,34163.91,33343.32,24655.06,28092.29,12615.68,8688.69
1389939.6689,3430.84,12904.22,34159.24,33325.34,24636.37,28121.38,12713.86,8669.76
1389939.6709,3852.65,12965.25,34133.2,33291.15,24599.75,28133.44,12818.77,8632.9
1389939.6729,3994.37,13013.08,34105.26,33261.92,24569.8,28137.12,12899.78,8600.28
1389939.6749,3748.08,13029.24,34090.05,33257.2,24564.89,28115.56,12906.22,8594.28
1389939.6769,3169.73,12981.65,34097.63,33275.23,24586.82,28082.04,12812.04,8608.72
1389939.6789,2601.0,12880.76,34107.5,33296.3,24607.42,28044.56,12661.55,8618.17
1389939.6809,2457.05,12814.19,34122.42,33321.48,24622.25,28034.83,12558.13,8626.37
1389939.6829,2750.83,12818.72,34138.49,33329.44,24634.32,28061.97,12564.28,8647.3
1389939.6849,3235.48,12861.68,34141.54,33320.96,24626.64,28096.63,12647.82,8658.84
1389939.6869,3728.49,12940.22,34139.83,33307.65,24612.86,28130.96,12774.99,8658.12
1389939.6889,3992.75,13009.17,34125.86,33282.95,24593.12,28156.86,12885.19,8640.72
1389939.6909,3895.76,13043.07,34111.89,33267.36,24580.77,28151.66,12926.01,8628.13
1389939.6929,3386.93,13011.93,34097.58,33261.35,24578.76,28101.3,12851.62,8622.22
1389939.6949,2750.06,12915.04,34096.77,33265.5,24594.74,28025.92,12699.65,8630.8
1389939.6969,2433.73,12828.3,34112.36,33289.01,24616.34,28011.85,12573.77,8646.35
1389939.6989,2614.88,12819.67,34135.54,33311.04,24634.79,28038.27,12555.51,8664.66
1389939.7009,3049.95,12846.61,34152.08,33319.52,24641.18,28078.03,12624.27,8676.29
1389939.7029,3570.8,12906.84,34146.65,33301.64,24618.06,28114.94,12735.8,8655.98
1389939.7049,3929.57,12975.69,34131.1,33277.13,24592.45,28138.78,12847.81,8634.0
1389939.7069,3963.71,13023.52,34113.6,33260.73,24578.62,28138.55,12917.85,8620.02
1389939.7089,3581.29,13027.1,34104.78,33264.45,24580.58,28109.65,12889.2,8620.69
1389939.7109,2945.23,12956.91,34104.73,33280.9,24598.65,28072.74,12765.08,8627.08
1389939.7129,2496.0,12862.02,34121.18,33312.23,24627.4,28058.48,12628.75,8652.4
1389939.7149,2521.71,12825.73,34143.02,33342.89,24647.81,28054.19,12569.81,8675.86
1389939.7169,2888.49,12833.02,34149.79,33345.7,24651.58,28075.98,12601.28,8678.53
1389939.7189,3402.9,12882.52,34142.83,33319.62,24634.98,28101.69,12697.65,8662.18
1389939.7209,3843.36,12957.34,34130.96,33290.44,24612.86,28117.47,12820.15,8643.63
1389939.7229,4007.39,13028.19,34124.24,33279.47,24601.32,28143.7,12924.24,8639.15
1389939.7249,3780.08,13054.18,34121.52,33280.04,24600.7,28141.5,12943.22,8641.29
1389939.7269,3186.99,13005.16,34109.88,33276.42,24600.65,28099.59,12843.85,8645.49
1389939.7289,2602.24,12896.11,34112.55,33284.57,24616.96,28059.39,12688.59,8658.84
1389939.7309,2450.08,12819.58,34117.42,33286.72,24621.16,28040.46,12578.77,8659.55
1389939.7329,2729.89,12809.8,34129.72,33289.39,24625.3,28056.01,12571.86,8662.03
1389939.7349,3224.04,12857.72,34137.78,33290.25,24619.3,28087.91,12658.88,8657.55
1389939.7369,3704.26,12928.2,34129.77,33283.05,24605.32,28123.57,12777.04,8638.34
1389939.7389,3997.99,13010.22,34124.28,33279.61,24595.84,28155.19,12895.97,8626.7
1389939.7409,3889.32,13045.93,34111.27,33270.6,24586.11,28154.52,12939.65,8615.35
1389939.7429,3386.78,13020.85,34095.72,33268.17,24581.1,28116.23,12871.89,8609.2
1389939.7449,2740.91,12925.96,34096.1,33279.85,24598.74,28082.09,12727.83,8628.99
1389939.7469,2447.89,12846.71,34109.36,33297.4,24619.77,28054.48,12605.91,8649.49
1389939.7489,2597.0,12820.39,34126.19,33308.75,24626.93,28054.38,12568.62,8657.36
1389939.7509,3052.81,12853.67,34139.68,33313.18,24624.68,28073.12,12632.37,8653.12
1389939.7529,3558.97,12922.0,34139.49,33305.84,24610.86,28115.18,12747.38,8634.57
1389939.7549,3949.79,13004.83,34126.1,33290.2,24590.73,28144.36,12868.6,8605.91
1389939.7569,3959.32,13046.03,34107.36,33275.18,24576.09,28145.84,12935.35,8583.59
1389939.7589,3609.13,13054.94,34098.96,33273.61,24574.43,28116.71,12910.65,8593.8
1389939.7609,2947.86,12977.41,34102.16,33291.06,24591.5,28070.12,12778.71,8623.74
1389939.7629,2509.55,12882.23,34116.99,33320.72,24617.72,28041.89,12637.52,8657.89
1389939.7649,2494.53,12825.82,34127.72,33327.92,24629.88,28038.36,12561.18,8672.24
1389939.7669,2886.25,12832.55,34130.91,33314.85,24624.83,28060.25,12590.12,8664.8
1389939.7689,3382.11,12889.24,34141.97,33301.07,24621.2,28108.79,12699.27,8658.74
1389939.7709,3850.41,12969.3,34135.49,33272.94,24601.46,28144.7,12821.96,8633.09
1389939.7729,3984.88,13022.33,34114.75,33250.19,24583.44,28160.19,12909.99,8608.96
1389939.7749,3781.99,13048.75,34106.31,33254.58,24576.62,28138.69,12927.25,8606.34
1389939.7769,3163.15,13001.06,34100.44,33262.92,24586.63,28081.9,12831.26,8625.84
1389939.7789,2603.48,12894.58,34102.44,33275.99,24603.18,28042.84,12678.67,8649.11
1389939.7809,2437.02,12828.64,34121.8,33296.16,24631.36,28036.12,12576.34,8674.72
1389939.7829,2750.92,12834.93,34144.98,33317.62,24651.1,28070.64,12589.5,8688.59
1389939.7849,3212.02,12870.6,34146.6,33310.08,24640.8,28106.36,12672.85,8677.39
1389939.7869,3719.43,12940.65,34135.35,33289.58,24616.91,28135.11,12789.44,8653.78
1389939.7889,3971.48,13003.21,34110.36,33261.45,24583.06,28150.51,12892.06,8623.93
1389939.7909,3885.94,13041.97,34102.25,33255.49,24574.09,28150.13,12940.03,8612.35
1389939.7929,3383.3,13026.33,34101.68,33259.82,24582.1,28107.74,12874.41,8614.83
1389939.7949,2756.41,12930.78,34111.12,33273.27,24604.85,28063.92,12728.55,8632.99
1389939.7969,2432.73,12837.22,34116.22,33288.1,24620.54,28032.64,12596.08,8646.16
1389939.7989,2583.41,12801.03,34124.71,33301.88,24628.07,28030.4,12552.36,8654.02
1389939.8009,3022.24,12830.16,34133.06,33301.93,24622.92,28063.87,12613.73,8656.07
1389939.8029,3541.04,12892.34,34134.11,33293.11,24609.52,28101.21,12727.55,8645.34
1389939.8049,3921.51,12978.51,34124.43,33278.85,24590.54,28128.53,12851.57,8628.51
1389939.8072,3948.98,13027.43,34115.03,33260.4,24579.67,28141.36,12927.34,8619.31
1389939.8092,3587.44,13034.25,34103.21,33251.86,24576.24,28109.27,12895.2,8614.49
1389939.8112,2931.45,12952.66,34098.15,33254.44,24589.88,28070.07,12764.03,8625.03
1389939.8132,2491.05,12863.64,34115.13,33279.09,24619.39,28056.58,12632.66,8641.2
1389939.8152,2484.61,12806.89,34127.43,33300.36,24634.17,28039.6,12555.17,8643.87
1389939.8172,2872.94,12815.62,34125.0,33303.03,24625.35,28042.94,12584.12,8644.58
1389939.8192,3359.7,12868.5,34129.96,33303.74,24619.63,28097.01,12684.06,8646.92
1389939.8212,3847.07,12963.01,34135.54,33297.83,24612.86,28145.75,12823.06,8644.2
1389939.8232,3987.27,13021.52,34122.85,33275.56,24596.84,28162.1,12916.52,8631.61
1389939.8252,3785.18,13053.94,34115.75,33262.69,24586.78,28140.79,12932.78,8622.93
1389939.8272,3159.09,12996.91,34113.79,33266.26,24598.79,28074.12,12827.35,8633.57
1389939.8292,2616.79,12902.98,34120.61,33285.29,24621.25,28035.02,12682.87,8654.4
1389939.8312,2441.6,12829.16,34132.58,33307.94,24641.95,28028.21,12577.34,8674.96
1389939.8332,2753.93,12836.93,34150.03,33323.96,24650.62,28056.82,12587.02,8681.44
1389939.8352,3207.92,12875.03,34156.76,33320.72,24647.76,28091.34,12668.52,8673.24
1389939.8372,3729.01,12943.79,34141.74,33299.45,24618.53,28119.04,12786.58,8641.48
1389939.8389,3970.43,13001.73,34119.8,33276.94,24588.97,28137.26,12884.33,8609.68
1389939.8409,3907.11,13047.51,34112.74,33279.47,24582.63,28137.4,12930.54,8593.85
1389939.8429,3389.26,13024.52,34108.31,33282.05,24587.11,28106.6,12866.45,8597.47
1389939.8449,2763.46,12927.01,34099.54,33276.09,24593.59,28054.05,12715.48,8618.17
1389939.8469,2417.95,12834.74,34113.98,33286.38,24613.1,28034.83,12587.74,8651.88
1389939.8489,2611.54,12815.91,34132.58,33305.36,24623.44,28047.8,12561.51,8665.85
1389939.8509,3038.93,12848.19,34142.16,33312.52,24628.21,28086.86,12629.8,8672.14
1389939.8529,3580.14,12919.62,34142.36,33307.22,24614.62,28131.92,12747.0,8658.93
1389939.8549,3915.36,12983.18,34120.85,33275.8,24586.73,28137.59,12855.15,8624.79
1389939.8569,3967.43,13029.48,34102.4,33254.2,24571.09,28127.58,12928.3,8602.91
1389939.8589,3594.16,13034.97,34093.34,33257.44,24571.47,28111.7,12908.08,8601.81
1389939.8609,2964.07,12967.54,34097.44,33275.18,24590.35,28071.12,12784.15,8624.22
1389939.8629,2494.62,12874.08,34112.84,33290.2,24622.54,28046.8,12649.97,8657.79
1389939.8649,2529.76,12841.27,34139.07,33317.05,24649.0,28059.68,12591.7,8681.2
1389939.8669,2888.97,12849.67,34143.83,33326.87,24645.24,28089.19,12621.26,8676.2
1389939.8689,3400.95,12900.64,34147.89,33320.24,24633.74,28123.19,12716.15,8667.47
1389939.8709,3846.93,12980.75,34143.83,33297.73,24616.77,28158.43,12845.42,8646.97
1389939.8729,4016.59,13039.02,34125.76,33273.75,24596.12,28170.73,12941.12,8627.03
1389939.8749,3770.54,13054.94,34105.64,33256.25,24580.58,28138.59,12942.94,8610.34
1389939.8769,3177.07,13005.12,34103.06,33261.49,24590.69,28087.76,12838.37,8620.93
1389939.8789,2606.92,12902.88,34110.17,33280.04,24613.67,28047.42,12685.68,8645.92
1389939.8809,2460.15,12845.95,34133.92,33310.08,24642.52,28052.57,12600.09,8676.1
1389939.8829,2742.34,12843.04,34144.6,33318.57,24651.39,28081.33,12605.38,8682.54
1389939.8849,3218.46,12873.7,34147.41,33312.52,24643.14,28116.42,12679.05,8668.81
1389939.8869,3716.85,12949.52,34135.01,33295.54,24618.34,28148.37,12802.55,8643.82
1389939.8889,3986.74,13019.61,34124.38,33284.67,24598.32,28164.77,12910.18,8624.32
1389939.8909,3898.19,13051.99,34108.31,33272.75,24580.96,28154.81,12948.42,8600.57
1389939.8929,3399.28,13032.15,34106.97,33277.56,24588.3,28122.24,12880.28,8606.43
1389939.8949,2763.61,12940.79,34107.16,33284.05,24606.37,28076.41,12734.61,8627.7
1389939.8969,2447.56,12857.06,34129.58,33307.7,24637.85,28058.25,12614.63,8661.18
1389939.8989,2629.09,12845.66,34151.8,33328.39,24652.91,28070.74,12587.98,8680.3
1389939.9009,3063.01,12868.6,34156.99,33330.16,24638.75,28100.64,12645.39,8673.72
1389939.9029,3577.95,12931.97,34155.95,33323.48,24621.63,28127.72,12751.77,8659.98
1389939.9049,3930.47,12993.15,34132.87,33299.26,24596.41,28141.36,12862.64,8631.75
1389939.9069,3962.37,13036.35,34104.49,33274.37,24579.15,28138.55,12928.49,8613.64
1389939.9089,3590.82,13040.69,34094.86,33262.07,24580.2,28112.84,12904.31,8608.96
1389939.9109,2953.34,12971.07,34095.58,33265.4,24594.93,28073.27,12781.1,8622.03
1389939.9129,2491.19,12871.22,34106.64,33285.53,24620.58,28046.52,12638.24,8650.07
1389939.9149,2504.97,12818.91,34115.6,33297.97,24632.12,28032.26,12559.75,8665.52
1389939.9169,2861.26,12817.1,34118.04,33291.44,24630.12,28049.33,12585.12,8663.23
1389939.9189,3375.2,12877.18,34127.19,33292.73,24623.02,28094.58,12692.64,8653.45
1389939.9209,3829.19,12958.96,34128.77,33286.48,24610.76,28135.3,12820.82,8637.48
1389939.9229,3995.23,13024.47,34115.65,33266.98,24593.59,28145.51,12915.28,8619.17
1389939.9249,3745.6,13035.01,34098.06,33254.96,24579.58,28113.51,12913.42,8604.0
1389939.9269,3162.29,12992.1,34099.87,33270.89,24590.3,28072.74,12813.28,8609.58
1389939.9289,2582.79,12883.19,34103.25,33283.52,24603.32,28031.73,12658.6,8615.26
1389939.9309,2441.45,12820.91,34121.33,33303.46,24624.02,28020.05,12562.42,8631.61
1389939.9329,2716.97,12813.38,34134.77,33309.85,24632.27,28041.18,12563.71,8650.92
1389939.9349,3204.63,12851.1,34136.35,33304.6,24626.88,28078.94,12646.87,8654.07
1389939.9369,3692.01,12922.05,34131.72,33292.44,24615.82,28119.95,12765.08,8644.39
1389939.9389,3977.59,12998.77,34117.89,33274.46,24600.08,28148.08,12877.37,8632.47
1389939.9409,3887.84,13047.84,34118.18,33274.08,24600.79,28163.34,12937.21,8637.48
1389939.9429,3419.35,13043.21,34121.9,33286.72,24608.09,28137.83,12888.77,8650.11
1389939.9449,2751.06,12930.73,34108.31,33279.04,24610.14,28093.1,12727.93,8653.55
1389939.9469,2447.61,12845.09,34120.95,33304.03,24635.56,28064.45,12599.42,8672.52
1389939.9489,2587.13,12811.14,34126.29,33310.8,24640.52,28044.66,12552.79,8676.96
1389939.9509,3026.39,12832.88,34123.66,33304.5,24630.5,28040.89,12609.77,8667.85
1389939.9529,3522.4,12893.34,34125.9,33298.26,24615.29,28088.0,12720.54,8648.25
1389939.9549,3916.6,12977.79,34118.32,33289.82,24596.84,28114.85,12845.52,8625.94
1389939.9569,3939.58,13024.52,34103.83,33277.42,24585.15,28117.23,12920.14,8612.54
1389939.9589,3595.97,13035.97,34097.39,33279.66,24585.44,28096.35,12898.07,8611.44
1389939.9609,2925.21,12956.0,34093.43,33281.95,24594.98,28053.14,12765.7,8621.07
1389939.9629,2478.65,12853.0,34098.92,33284.29,24611.19,28019.86,12618.45,8637.86
1389939.9649,2471.88,12804.56,34116.89,33291.77,24625.26,28024.63,12549.69,8655.5
1389939.9669,2864.31,12818.24,34128.77,33295.06,24625.26,28059.63,12582.73,8656.55
1389939.9689,3357.36,12874.41,34133.44,33291.53,24620.25,28102.78,12684.11,8649.68
1389939.9709,3836.16,12955.86,34124.19,33274.94,24598.98,28128.58,12805.27,8628.61
1389939.9729,3969.86,13009.45,34106.4,33256.49,24580.34,28125.19,12895.01,8610.58
1389939.9749,3768.73,13036.97,34096.39,33253.2,24577.62,28109.6,12914.33,8603.86
1389939.9769,3156.19,12985.9,34084.85,33251.34,24583.63,28067.78,12816.86,8611.44
1389939.9789,2598.19,12885.95,34090.19,33269.6,24606.04,28032.26,12669.95,8632.57
1389939.9809,2433.3,12820.2,34110.98,33298.97,24630.26,28025.87,12571.48,8647.82
1389939.9829,2739.48,12823.15,34135.73,33325.77,24645.0,28059.87,12580.01,8650.35
1389939.9849,3212.12,12865.31,34144.41,33329.68,24639.37,28094.1,12665.18,8654.74
1389939.9869,3712.08,12929.82,34133.53,33313.66,24614.15,28115.71,12779.43,8638.34
1389939.9889,3979.44,13007.02,34123.09,33297.45,24598.41,28139.36,12893.58,8629.28
1389939.9909,3890.71,13036.16,34102.73,33272.65,24580.91,28130.96,12930.63,8617.45
1389939.9929,3393.22,13022.42,34096.34,33266.88,24586.39,28097.87,12871.84,8624.13
1389939.9949,2758.88,12929.35,34102.59,33270.89,24606.66,28059.53,12726.21,8646.39
1389939.9969,2437.26,12840.32,34114.56,33283.43,24625.59,28042.13,12599.9,8660.56
1389939.9989,2586.51,12801.08,34120.47,33294.49,24624.54,28041.13,12551.26,8658.08
1389940.0009,3019.0,12823.15,34125.9,33289.87,24618.2,28068.36,12605.14,8653.16
1389940.0029,3532.79,12885.62,34125.48,33283.43,24606.61,28098.87,12713.91,8642.01
1389940.0049,3927.9,12975.03,34121.42,33274.27,24593.31,28128.53,12838.56,8631.52
1389940.0069,3956.37,13015.08,34099.73,33251.34,24573.95,28125.53,12911.13,8613.21
1389940.0089,3603.6,13025.33,34091.62,33251.19,24574.33,28093.58,12891.44,8611.68
1389940.0109,2951.29,12950.33,34093.72,33258.25,24596.6,28054.38,12764.03,8628.42
1389940.0129,2511.64,12857.92,34106.83,33274.61,24618.25,28029.87,12625.93,8648.21
1389940.0149,2501.15,12803.84,34125.71,33298.26,24635.94,28032.45,12550.26,8664.32
1389940.0169,2903.27,12829.26,34152.8,33321.43,24650.72,28065.73,12593.41,8674.24
1389940.0189,3390.03,12878.13,34155.52,33323.01,24640.61,28100.92,12691.74,8661.32
1389940.0209,3858.33,12954.28,34136.97,33298.88,24606.85,28126.86,12809.42,8628.8
1389940.0229,3985.93,13004.26,34113.36,33266.83,24580.62,28130.01,12895.97,8606.48
1389940.0249,3788.52,13037.25,34104.35,33260.06,24573.52,28114.42,12915.09,8591.56
1389940.0269,3177.69,12993.15,34106.69,33267.74,24587.11,28084.66,12817.67,8597.66
1389940.0289,2629.33,12903.07,34112.46,33289.1,24613.72,28053.67,12673.19,8630.94
1389940.0309,2440.07,12828.83,34129.29,33308.37,24642.9,28035.45,12570.43,8664.75
1389940.0329,2738.24,12823.96,34139.45,33312.23,24647.29,28051.67,12573.86,8670.38
1389940.0349,3191.04,12850.81,34142.4,33300.31,24636.8,28081.23,12645.91,8661.08
1389940.0369,3714.42,12925.34,34135.11,33281.71,24612.72,28113.99,12767.08,8641.1
1389940.0389,3966.38,12991.33,34117.27,33262.35,24593.07,28143.79,12875.84,8622.31
1389940.0409,3906.77,13035.59,34106.83,33254.91,24582.2,28147.27,12925.86,8615.4
1389940.0429,3388.69,13015.94,34101.97,33258.11,24591.35,28113.99,12863.07,8625.51
1389940.0449,2778.44,12930.25,34105.02,33272.6,24612.29,28066.73,12721.54,8646.87
1389940.0469,2426.2,12831.74,34108.83,33283.33,24626.54,28028.59,12584.69,8659.03
1389940.0489,2603.72,12812.81,34124.33,33303.36,24638.7,28027.25,12549.31,8666.52
1389940.0509,3023.2,12840.89,34137.54,33311.99,24640.23,28079.94,12614.39,8664.04
1389940.0529,3559.97,12907.32,34132.53,33303.22,24617.77,28126.15,12725.21,8642.82
1389940.0549,3920.6,12988.66,34129.67,33292.77,24606.18,28154.19,12845.8,8628.8
1389940.0569,3975.58,13040.26,34122.38,33285.67,24597.6,28130.49,12922.34,8619.4
1389940.0589,3601.6,13044.03,34109.74,33278.66,24591.45,28102.31,12898.21,8614.45
1389940.0609,2970.65,12970.12,34103.87,33280.33,24602.23,28065.73,12774.9,8627.7
1389940.0629,2484.99,12861.11,34107.74,33290.01,24622.87,28031.88,12628.51,8646.49
1389940.0649,2500.3,12812.28,34127.19,33312.52,24637.61,28032.83,12555.08,8659.7
1389940.0669,2866.75,12816.48,34134.58,33312.61,24635.41,28055.81,12581.35,8660.41
1389940.0689,3377.68,12868.45,34138.16,33300.69,24624.49,28087.95,12678.82,8652.07
1389940.0709,3818.46,12947.37,34130.63,33280.19,24602.32,28123.67,12804.75,8631.37
1389940.0729,3999.09,13013.6,34122.76,33267.88,24588.16,28145.08,12907.46,8619.02
1389940.0749,3787.8,13047.36,34119.09,33271.22,24587.21,28138.93,12926.77,8618.88
1389940.0769,3192.62,12999.54,34117.99,33276.37,24597.93,28094.72,12825.87,8624.7
1389940.0789,2608.59,12897.49,34120.47,33287.1,24618.06,28055.05,12673.43,8639.62
1389940.0809,2449.04,12827.45,34130.29,33307.03,24638.8,28046.99,12571.29,8660.27
1389940.0829,2733.8,12828.26,34144.6,33315.14,24649.86,28071.55,12580.63,8675.24
1389940.0849,3208.83,12864.78,34148.65,33314.18,24645.71,28103.83,12658.03,8672.67
1389940.0869,3706.69,12934.88,34131.34,33300.79,24618.77,28127.48,12772.13,8647.01
1389940.0889,3969.0,12995.91,34106.21,33280.19,24590.54,28139.31,12875.13,8619.02
1389940.0909,3881.88,13035.63,34089.62,33265.17,24574.47,28130.11,12922.34,8595.56
1389940.0929,3387.36,13014.79,34086.52,33268.41,24582.77,28090.67,12859.58,8603.0
1389940.0949,2759.6,12926.48,34097.39,33274.85,24609.71,28055.58,12719.78,8633.52
1389940.0969,2431.35,12833.88,34112.17,33293.63,24634.03,28040.56,12592.98,8662.51
1389940.0989,2591.47,12810.33,34126.67,33303.65,24645.47,28044.8,12551.5,8674.0
1389940.1009,3017.47,12830.78,34133.39,33300.45,24640.71,28066.45,12603.62,8668.33
1389940.1029,3546.38,12898.59,34134.44,33293.87,24628.07,28108.17,12723.88,8659.79
1389940.1049,3911.21,12975.84,34122.66,33280.9,24608.81,28143.31,12847.95,8640.91
1389940.1069,3964.0,13030.34,34107.26,33272.03,24594.02,28146.32,12923.67,8620.93
1389940.1089,3598.98,13032.15,34097.63,33275.56,24592.12,28116.94,12901.02,8611.49
1389940.1109,2960.4,12961.1,34093.43,33282.33,24604.9,28071.36,12777.76,8620.07
1389940.1129,2475.17,12857.34,34102.25,33289.15,24623.3,28037.07,12627.65,8641.91
1389940.1149,2498.82,12827.87,34130.58,33315.95,24649.43,28044.08,12566.52,8672.19
1389940.1169,2876.9,12847.33,34155.99,33333.69,24664.98,28086.76,12609.96,8689.07
1389940.1189,3382.25,12889.91,34146.74,33318.24,24642.18,28113.03,12694.26,8667.76
1389940.1209,3822.37,12957.0,34126.43,33292.25,24610.81,28135.02,12811.42,8639.77
1389940.1229,3992.27,13018.04,34107.02,33263.5,24588.87,28148.13,12902.17,8620.64
1389940.1249,3760.82,13040.02,34099.3,33261.83,24586.06,28131.77,12909.46,8611.49
1389940.1269,3174.93,12995.82,34094.96,33267.07,24594.41,28077.94,12810.14,8609.96
1389940.1289,2593.61,12891.72,34105.69,33281.47,24619.96,28044.18,12660.08,8634.47
1389940.1309,2448.85,12829.93,34126.81,33306.79,24646.81,28044.42,12566.71,8667.28
1389940.1329,2714.01,12820.58,34138.02,33314.66,24652.91,28057.72,12561.28,8676.91
1389940.1349,3203.82,12866.31,34142.21,33319.19,24646.76,28090.05,12644.29,8674.1
1389940.1369,3699.45,12936.74,34140.26,33311.18,24627.64,28126.29,12768.22,8660.27
1389940.1389,3994.75,13012.12,34128.62,33293.3,24609.04,28151.66,12885.19,8639.81
1389940.1409,3895.33,13044.79,34113.13,33280.33,24596.03,28152.37,12929.15,8625.41
1389940.1429,3410.67,13021.66,34100.97,33276.13,24592.83,28102.64,12859.78,8625.51
1389940.1449,2757.64,12930.06,34100.35,33283.38,24612.38,28056.48,12714.67,8643.39
1389940.1469,2446.27,12843.9,34110.12,33299.74,24631.31,28036.98,12585.5,8662.89
1389940.1489,2596.81,12823.49,34134.11,33318.14,24647.81,28058.82,12564.47,8683.92
1389940.1509,3061.49,12864.07,34158.38,33331.97,24656.11,28113.51,12633.99,8690.79
1389940.1529,3552.39,12919.71,34153.27,33315.57,24639.61,28143.36,12724.83,8669.85
1389940.1549,3936.34,12996.1,34136.44,33289.82,24617.48,28160.77,12847.33,8643.77
1389940.1569,3954.89,13031.63,34111.03,33264.74,24597.46,28148.03,12917.71,8626.7
1389940.159,3611.47,13033.01,34089.71,33257.54,24585.87,28104.36,12885.52,8615.02
1389940.161,2946.66,12961.06,34087.23,33265.98,24597.31,28046.99,12756.87,8630.94
1389940.163,2498.67,12865.4,34092.14,33285.1,24614.67,28023.34,12620.26,8648.35
1389940.165,2486.9,12819.15,34107.64,33308.7,24634.08,28030.68,12552.31,8662.65
1389940.167,2880.0,12836.36,34124.57,33323.05,24638.37,28078.8,12593.51,8667.18
1389940.169,3371.91,12889.43,34126.81,33315.23,24626.93,28125.0,12694.84,8660.7
1389940.171,3841.69,12966.3,34115.27,33292.2,24604.37,28151.71,12815.05,8636.57
1389940.173,3987.88,13023.43,34103.35,33269.7,24594.5,28148.37,12913.61,8626.22
1389940.175,3794.38,13052.66,34102.68,33266.26,24595.98,28116.61,12935.54,8630.09
1389940.177,3196.29,13007.21,34100.2,33271.84,24605.47,28091.86,12838.75,8637.81
1389940.179,2631.28,12910.37,34110.98,33287.1,24627.26,28061.92,12688.97,8658.12
1389940.181,2444.79,12835.89,34126.33,33301.64,24644.04,28048.33,12586.36,8672.81
1389940.183,2726.22,12820.01,34134.68,33301.88,24644.43,28061.92,12580.54,8670.86
1389940.185,3180.36,12847.38,34131.29,33291.63,24633.41,28089.24,12652.45,8661.6
1389940.187,3691.86,12916.38,34123.71,33279.8,24615.86,28119.23,12768.32,8640.34
1389940.189,3966.05,12987.81,34107.93,33257.97,24594.74,28140.6,12879.95,8615.4
1389940.191,3900.43,13029.1,34093.81,33253.2,24582.91,28136.92,12929.2,8604.58
1389940.193,3424.84,13020.56,34084.61,33259.49,24580.67,28103.55,12873.08,8608.63
1389940.195,2780.77,12931.49,34088.81,33274.08,24601.18,28074.84,12732.08,8630.71
1389940.197,2444.79,12844.42,34105.78,33298.45,24627.55,28062.39,12604.86,8654.6
1389940.199,2594.42,12807.04,34117.08,33309.99,24636.32,28052.86,12559.61,8664.9
1389940.201,3028.77,12827.06,34117.18,33298.4,24625.45,28057.44,12613.87,8656.79
1389940.203,3527.21,12883.52,34115.7,33281.62,24605.47,28090.0,12715.15,8634.71
1389940.205,3910.64,12966.44,34103.16,33262.5,24577.81,28113.03,12833.64,8608.82
1389940.207,3952.84,13021.33,34098.3,33257.68,24568.7,28128.29,12914.95,8597.66
1389940.209,3608.42,13034.44,34091.29,33254.2,24568.32,28106.22,12899.88,8593.13
1389940.211,2959.49,12968.26,34096.29,33267.45,24592.16,28070.83,12778.24,8612.59
1389940.213,2528.52,12890.53,34116.84,33295.3,24630.02,28054.96,12648.97,8657.89
1389940.215,2513.89,12840.37,34133.87,33311.9,24649.0,28057.15,12576.53,8684.64
1389940.217,2887.11,12842.13,34135.44,33303.31,24641.56,28077.94,12601.95,8676.82
1389940.219,3355.69,12878.51,34127.62,33289.01,24626.45,28105.79,12688.45,8661.65
1389940.221,3841.21,12966.21,34118.8,33275.94,24609.43,28134.02,12819.91,8644.87
1389940.223,3976.49,13015.56,34099.15,33254.68,24589.02,28142.98,12908.94,8621.07
1389940.225,3788.57,13045.79,34086.28,33254.58,24578.86,28129.72,12924.39,8599.81
1389940.227,3175.93,12994.48,34080.46,33259.11,24588.97,28088.05,12824.2,8605.43
1389940.229,2616.02,12896.63,34087.81,33269.08,24607.61,28045.13,12676.43,8635.47
1389940.231,2411.75,12813.47,34104.02,33284.33,24627.16,28030.54,12564.37,8661.94
1389940.233,2718.35,12811.28,34122.66,33302.02,24635.46,28051.28,12567.52,8673.72
1389940.235,3175.5,12846.9,34130.77,33309.46,24632.36,28090.53,12647.53,8665.75
1389940.237,3703.26,12923.05,34124.43,33300.59,24613.86,28128.72,12774.9,8642.39
1389940.239,3960.37,12991.29,34112.08,33277.42,24598.65,28151.94,12885.05,8625.7
1389940.241,3912.83,13037.64,34101.63,33269.12,24585.77,28158.33,12936.55,8617.64
1389940.243,3397.66,13012.46,34082.85,33265.21,24579.96,28117.8,12862.49,8615.64
1389940.245,2772.62,12918.57,34079.03,33265.45,24592.59,28053.81,12708.62,8627.99
1389940.247,2416.09,12825.68,34096.63,33282.09,24621.06,28007.18,12580.59,8652.64
1389940.249,2585.13,12805.65,34115.51,33300.83,24633.6,28020.53,12550.74,8665.56
1389940.251,2998.92,12828.69,34125.62,33296.78,24633.98,28065.35,12611.53,8666.47
1389940.253,3536.27,12893.87,34121.09,33281.23,24612.57,28103.69,12716.96,8644.01
1389940.255,3908.01,12977.74,34113.08,33269.46,24593.88,28142.31,12842.9,8625.37
1389940.257,3977.59,13035.73,34107.16,33263.64,24589.02,28156.71,12925.58,8623.27
1389940.259,3603.41,13034.97,34090.33,33257.3,24577.67,28112.8,12896.59,8613.97
1389940.261,2965.55,12957.86,34083.89,33257.44,24582.29,28048.9,12763.45,8618.64
1389940.263,2483.8,12864.11,34103.87,33277.23,24616.86,28023.63,12631.27,8653.5
1389940.265,2494.86,12812.52,34118.94,33293.87,24635.75,28028.87,12557.37,8666.33
1389940.267,2857.02,12814.9,34123.23,33289.87,24632.7,28056.91,12578.82,8658.08
1389940.269,3372.0,12868.69,34127.48,33288.48,24622.4,28098.25,12679.53,8649.16
1389940.271,3821.09,12944.56,34115.51,33273.65,24603.08,28125.67,12804.13,8628.23
1389940.273,3992.18,13007.12,34100.68,33262.64,24587.68,28141.64,12899.92,8608.63
1389940.275,3786.85,13044.88,34092.62,33270.17,24585.87,28140.26,12921.38,8605.58
1389940.277,3203.3,13003.4,34091.76,33281.47,24600.32,28106.65,12829.5,8622.27
1389940.279,2615.83,12896.01,34095.48,33287.24,24624.21,28056.1,12681.2,8645.73
1389940.281,2440.93,12821.25,34111.6,33303.65,24642.28,28030.07,12581.16,8664.04
1389940.283,2717.92,12812.57,34116.08,33303.17,24639.37,28058.44,12581.45,8663.37
1389940.285,3181.36,12839.51,34109.5,33286.96,24619.77,28084.23,12643.96,8642.48
1389940.287,3696.44,12923.62,34113.41,33278.42,24608.95,28117.95,12767.84,8631.23
1389940.289,3971.29,12988.76,34102.44,33264.74,24591.31,28136.64,12879.37,8612.44
1389940.291,3899.1,13025.29,34092.86,33262.88,24581.77,28130.77,12927.34,8606.48
1389940.293,3412.72,13009.5,34087.61,33265.55,24589.54,28099.02,12862.11,8617.69
1389940.295,2778.05,12919.38,34080.56,33259.97,24602.8,28051.57,12713.86,8634.0
1389940.297,2425.15,12820.34,34093.72,33271.94,24623.35,28031.78,12583.07,8655.07
1389940.299,2578.4,12794.97,34114.08,33286.96,24635.7,28037.03,12551.21,8666.23
1389940.301,3006.51,12815.43,34122.76,33287.53,24632.17,28070.69,12608.91,8660.37
1389940.303,3542.85,12886.19,34127.91,33289.39,24621.01,28117.85,12728.64,8649.92
1389940.305,3917.93,12966.59,34119.32,33280.28,24605.52,28139.07,12850.19,8637.38
1389940.307,3980.4,13021.57,34106.31,33265.07,24591.64,28141.45,12929.82,8625.32
1389940.309,3624.77,13027.19,34094.0,33255.29,24589.35,28110.22,12903.45,8616.16
1389940.311,2988.77,12961.25,34088.76,33257.92,24600.99,28070.88,12777.14,8628.32
1389940.313,2493.33,12853.48,34095.43,33270.89,24619.15,28037.12,12617.88,8649.73
1389940.315,2492.0,12803.17,34108.55,33289.2,24632.36,28029.97,12534.48,8660.99
1389940.317,2854.54,12812.19,34123.38,33298.88,24638.94,28070.12,12570.76,8663.7
1389940.319,3370.86,12868.55,34125.76,33296.11,24627.07,28116.13,12675.1,8641.91
1389940.321,3821.95,12950.37,34122.8,33291.63,24611.81,28160.24,12810.09,8616.11
1389940.323,3997.04,13009.98,34101.92,33276.23,24586.3,28157.62,12903.55,8599.52
1389940.325,3771.45,13024.57,34078.89,33261.02,24568.51,28121.57,12904.5,8592.99
1389940.327,3190.18,12982.51,34076.12,33263.78,24580.1,28073.36,12816.34,8609.49
1389940.329,2598.43,12880.99,34084.09,33269.7,24601.75,28034.74,12668.9,8636.43
1389940.331,2422.19,12804.7,34092.14,33278.9,24613.96,28021.24,12560.08,8654.26
1389940.333,2681.45,12792.54,34105.78,33288.29,24627.5,28049.38,12551.31,8666.8
1389940.335,3182.79,12840.32,34114.27,33291.01,24629.02,28094.2,12638.19,8666.09
1389940.337,3671.69,12910.8,34107.12,33274.94,24605.09,28119.33,12757.02,8647.63
1389940.339,3973.53,12989.81,34103.49,33263.83,24591.97,28136.92,12873.84,8634.04
1389940.341,3904.53,13041.16,34104.64,33269.7,24600.13,28140.83,12937.69,8638.43
1389940.343,3441.19,13033.92,34098.39,33277.94,24605.09,28111.13,12878.37,8639.0
1389940.345,2772.52,12925.24,34088.62,33276.8,24607.33,28055.24,12720.92,8640.43
1389940.347,2429.53,12827.16,34095.91,33284.72,24623.3,28031.45,12587.6,8655.93
1389940.349,2551.13,12786.72,34104.54,33283.91,24633.17,28037.5,12543.54,8665.18
1389940.351,3004.93,12809.56,34108.55,33280.38,24629.31,28066.5,12596.94,8656.79
1389940.353,3516.29,12878.51,34113.32,33280.57,24619.15,28108.03,12713.72,8647.16
1389940.355,3919.46,12965.54,34105.73,33269.55,24598.74,28133.2,12839.32,8628.89
1389940.357,3960.66,13014.37,34086.42,33250.24,24580.91,28145.22,12909.8,8611.92
1389940.359,3623.96,13022.38,34067.35,33242.99,24572.28,28120.9,12884.95,8600.62
1389940.361,2957.25,12950.23,34065.92,33248.14,24588.87,28080.51,12760.83,8611.16
1389940.363,2489.47,12852.34,34078.98,33267.12,24612.1,28030.11,12620.16,8635.33
1389940.365,2455.76,12799.07,34094.81,33278.95,24624.68,28006.22,12543.54,8654.5
1389940.367,2856.68,12824.01,34125.24,33307.65,24643.85,28062.49,12587.22,8676.34
1389940.369,3352.69,12876.7,34131.44,33306.98,24639.56,28105.31,12686.02,8669.43
1389940.371,3821.28,12944.99,34111.5,33285.53,24610.95,28128.06,12798.84,8635.47
1389940.373,3967.76,12998.2,34089.04,33257.15,24584.11,28138.69,12884.43,8605.72
1389940.375,3791.38,13037.59,34091.43,33256.92,24583.87,28131.68,12907.98,8608.39
1389940.377,3204.49,13001.11,34091.38,33261.97,24597.7,28086.14,12819.15,8625.08
1389940.379,2630.04,12899.07,34096.05,33271.6,24617.39,28055.48,12672.47,8641.67
1389940.381,2424.62,12818.67,34110.84,33294.01,24638.04,28043.61,12562.42,8653.45
1389940.383,2710.39,12804.18,34129.96,33311.32,24649.29,28059.06,12558.13,8663.8
1389940.385,3192.9,12852.48,34143.83,33316.04,24650.62,28094.34,12642.15,8666.9
1389940.387,3701.83,12926.96,34134.68,33301.31,24627.45,28125.19,12760.59,8652.88
1389940.389,3968.57,12985.9,34103.83,33261.02,24590.78,28132.16,12862.25,8625.03
1389940.391,3904.15,13020.23,34084.94,33243.42,24572.04,28124.72,12908.22,8612.11
1389940.393,3426.08,13012.7,34080.56,33247.95,24579.58,28091.86,12856.91,8616.73
1389940.395,2782.73,12923.67,34086.23,33265.88,24606.8,28053.72,12716.72,8637.95
1389940.397,2430.63,12832.26,34094.43,33278.61,24624.88,28035.5,12585.69,8657.65
1389940.399,2564.53,12795.83,34107.4,33287.91,24632.27,28046.04,12537.39,8665.47
1389940.401,3013.9,12832.55,34124.76,33299.4,24639.08,28089.67,12606.91,8664.85
1389940.403,3523.06,12891.72,34125.14,33292.01,24623.68,28122.81,12715.06,8646.54
1389940.405,3914.4,12971.74,34112.84,33276.9,24595.93,28143.93,12837.46,8622.22
1389940.407,3954.79,13015.7,34095.86,33257.54,24579.81,28147.32,12908.32,8608.29
1389940.409,3625.54,13034.97,34090.81,33257.11,24582.91,28113.8,12892.39,8613.16
1389940.411,2969.46,12960.53,34087.19,33257.63,24598.27,28052.43,12766.08,8629.61
1389940.413,2493.52,12855.96,34089.19,33265.55,24616.05,28022.01,12624.36,8643.49
1389940.415,2456.76,12797.36,34105.59,33285.48,24637.27,28033.26,12544.49,8663.04
1389940.417,2853.82,12813.19,34119.99,33297.78,24642.85,28078.65,12579.59,8664.75
1389940.419,3336.53,12862.02,34127.76,33298.97,24637.08,28111.27,12678.62,8654.83
1389940.421,3820.99,12950.52,34124.28,33289.96,24622.59,28128.58,12812.04,8636.43
1389940.423,3980.3,13008.02,34110.6,33268.74,24605.8,28150.61,12908.17,8612.11
1389940.425,3808.31,13037.3,34094.77,33253.63,24588.54,28125.53,12926.1,8591.13
1389940.427,3194.52,12986.95,34084.23,33249.86,24591.69,28072.31,12828.11,8603.05
1389940.429,2632.33,12897.68,34091.62,33266.07,24615.82,28041.18,12684.59,8635.0
1389940.431,2431.58,12825.3,34111.17,33288.63,24640.52,28044.94,12578.63,8667.9
1389940.433,2740.38,12830.78,34133.2,33309.65,24652.96,28079.32,12582.11,8682.78
1389940.435,3176.4,12857.82,34137.16,33304.65,24642.04,28085.9,12652.78,8674.57
1389940.437,3688.91,12923.62,34120.23,33282.86,24612.72,28103.07,12765.55,8641.91
1389940.439,3939.3,12981.85,34105.07,33252.77,24591.73,28124.29,12869.22,8622.22
1389940.441,3889.94,13026.33,34097.25,33251.77,24587.11,28128.39,12921.24,8621.6
1389940.443,3394.89,13015.18,34096.63,33266.41,24585.3,28101.11,12867.64,8627.8
1389940.445,2788.54,12935.31,34097.58,33280.85,24598.36,28060.53,12729.5,8641.39
1389940.447,2441.98,12847.62,34105.88,33299.55,24621.87,28035.17,12606.0,8657.65
1389940.449,2602.72,12823.2,34117.08,33308.8,24631.88,28047.28,12571.81,8660.94
1389940.451,3005.31,12839.27,34123.62,33299.97,24632.22,28080.51,12622.17,8658.6
1389940.453,3531.79,12891.96,34119.32,33285.81,24617.1,28109.79,12722.68,8644.25
1389940.455,3885.89,12958.58,34106.35,33260.64,24599.84,28125.05,12834.6,8625.65
1389940.457,3955.56,13010.46,34097.1,33248.95,24589.35,28138.88,12915.76,8614.54
1389940.459,3596.5,13018.18,34083.13,33248.52,24590.02,28107.46,12892.2,8610.2
1389940.461,2968.88,12946.8,34074.6,33256.63,24602.37,28062.11,12765.46,8618.45
1389940.463,2484.89,12850.95,34082.99,33274.65,24618.72,28037.6,12624.55,8641.39
1389940.465,2496.96,12814.48,34107.02,33308.61,24635.46,28042.99,12561.7,8664.28
1389940.467,2859.55,12827.59,34120.37,33308.03,24635.79,28073.93,12595.23,8666.33
1389940.469,3352.64,12868.12,34114.75,33287.39,24618.44,28099.83,12681.2,8645.25
1389940.471,3785.13,12929.06,34091.86,33255.68,24585.44,28114.94,12785.39,8611.39
1389940.473,3957.61,12979.46,34068.02,33230.93,24560.03,28122.91,12873.46,8590.75
1389940.475,3751.42,13005.45,34052.42,33221.68,24549.44,28116.37,12896.87,8581.5
1389940.477,3174.45,12964.01,34052.38,33228.54,24558.98,28086.76,12807.08,8592.08
1389940.479,2589.32,12865.78,34056.62,33239.89,24577.05,28045.23,12656.59,8608.77
1389940.481,2408.41,12792.49,34073.21,33260.11,24596.98,28021.39,12553.74,8625.79
1389940.483,2684.31,12789.3,34091.38,33271.7,24608.57,28038.08,12555.79,8634.95
1389940.485,3153.66,12824.49,34099.49,33272.22,24603.56,28077.13,12634.71,8631.61
1389940.487,3662.63,12901.55,34091.48,33259.78,24579.96,28111.41,12757.92,8611.73
1389940.489,3945.02,12973.41,34080.8,33243.14,24563.55,28139.26,12871.93,8590.6
1389940.491,3885.32,13021.66,34076.84,33238.7,24562.55,28152.33,12927.01,8583.21
1389940.493,3400.8,13001.11,34071.02,33241.18,24567.46,28120.09,12864.78,8586.79
1389940.495,2772.81,12911.46,34072.36,33248.81,24586.16,28073.98,12721.97,8607.53
1389940.497,2422.38,12816.72,34088.9,33269.36,24610.09,28043.18,12592.6,8635.33
1389940.499,2577.5,12799.5,34108.55,33287.0,24622.82,28033.36,12559.75,8648.83
1389940.501,3006.65,12832.4,34127.14,33295.35,24631.6,28078.46,12620.16,8658.03
1389940.503,3532.55,12901.64,34127.67,33287.72,24616.91,28115.8,12729.88,8644.15
1389940.505,3884.65,12959.34,34095.48,33249.86,24580.62,28119.23,12832.83,8607.44
1389940.507,3934.38,12998.11,34065.92,33219.87,24555.21,28108.98,12900.02,8581.59
1389940.509,3570.46,12993.86,34045.56,33207.9,24542.72,28078.61,12871.89,8567.43
1389940.511,2942.71,12928.92,34042.93,33220.25,24553.44,28038.22,12751.44,8581.83
1389940.513,2465.39,12835.46,34062.06,33252.53,24581.24,28020.0,12615.11,8611.25
1389940.515,2463.25,12790.54,34082.7,33276.94,24599.22,28023.06,12544.49,8618.74
1389940.517,2820.68,12797.98,34097.48,33283.57,24605.71,28052.76,12573.2,8608.96
1389940.519,3335.86,12851.96,34100.2,33278.37,24596.98,28091.15,12672.71,8600.28
1389940.521,3784.94,12922.81,34088.33,33253.29,24574.9,28115.94,12790.73,8593.32
1389940.523,3971.2,12989.09,34079.94,33235.41,24563.55,28127.58,12886.43,8588.41
1389940.525,3755.05,13010.5,34068.11,33223.68,24555.5,28109.74,12897.16,8580.97
1389940.527,3182.41,12964.58,34063.15,33223.44,24562.79,28072.36,12804.03,8584.02
1389940.529,2594.14,12862.16,34072.02,33240.8,24587.44,28035.55,12654.88,8601.95
1389940.531,2431.11,12796.74,34087.57,33266.98,24605.85,28026.97,12545.87,8613.97
1389940.533,2706.81,12802.89,34112.84,33297.16,24625.83,28075.08,12553.69,8636.86
1389940.535,3203.63,12856.44,34131.96,33309.32,24635.84,28125.81,12648.54,8652.31
1389940.537,3692.68,12924.39,34128.48,33286.77,24622.35,28142.98,12766.7,8642.39
1389940.539,3986.74,12991.81,34104.26,33250.96,24589.59,28136.54,12867.79,8613.54
1389940.541,3885.56,13015.89,34080.89,33224.59,24568.04,28116.47,12905.89,8595.32
1389940.543,3403.66,12997.91,34070.64,33224.73,24567.32,28082.71,12846.23,8598.95
1389940.545,2750.06,12906.93,34078.36,33239.75,24588.4,28042.18,12704.66,8623.27
1389940.547,2425.96,12816.72,34091.14,33257.3,24609.19,28016.24,12573.39,8643.29
1389940.549,2549.6,12778.81,34098.2,33262.3,24615.58,28023.58,12528.61,8647.4
1389940.551,2990.91,12804.18,34104.16,33266.55,24613.57,28063.11,12595.13,8641.82
1389940.553,3499.65,12872.94,34114.08,33272.94,24611.43,28104.88,12715.63,8636.43
1389940.555,3900.48,12951.52,34108.21,33265.31,24593.21,28128.34,12835.17,8613.06
1389940.557,3944.21,13000.54,34094.96,33260.87,24580.82,28141.64,12912.8,8597.57
1389940.559,3619.77,13012.41,34087.09,33260.06,24580.53,28116.32,12895.06,8597.66
1389940.561,2957.06,12937.17,34086.33,33248.81,24592.02,28067.93,12767.22,8612.2
1389940.563,2489.23,12831.36,34089.19,33251.19,24608.9,28035.36,12622.26,8628.51
1389940.565,2460.24,12781.24,34102.11,33266.64,24624.59,28043.08,12553.74,8644.15
1389940.567,2845.67,12794.5,34115.22,33279.95,24629.74,28074.55,12586.17,8647.59
1389940.569,3331.66,12842.85,34110.36,33275.56,24615.43,28104.55,12680.44,8632.71
1389940.571,3807.02,12919.9,34096.58,33259.21,24589.11,28131.44,12804.94,8609.15
1389940.573,3962.23,12979.46,34079.51,33241.94,24570.09,28142.41,12899.07,8591.46
1389940.575,3766.35,13005.07,34070.93,33233.12,24562.84,28131.63,12919.05,8584.45
1389940.577,3181.08,12969.64,34078.75,33241.09,24582.82,28102.12,12834.26,8601.57
1389940.579,2617.55,12875.08,34093.48,33263.59,24610.67,28077.03,12690.26,8628.51
1389940.581,2421.09,12806.61,34108.45,33284.1,24630.31,28066.54,12587.93,8645.87
1389940.583,2699.9,12795.26,34118.47,33289.2,24633.7,28072.79,12583.11,8651.78
1389940.585,3171.73,12830.64,34117.89,33281.57,24623.68,28096.97,12657.79,8645.77
1389940.587,3670.31,12894.44,34108.98,33265.21,24600.84,28121.09,12765.36,8620.74
1389940.589,3949.07,12966.44,34090.57,33239.42,24579.0,28137.73,12876.42,8594.7
1389940.591,3885.65,13004.26,34082.23,33228.26,24569.94,28133.44,12925.67,8581.11
1389940.593,3409.62,12991.81,34073.45,33220.77,24566.8,28097.59,12864.54,8581.69
1389940.595,2753.4,12896.11,34072.21,33226.3,24584.53,28056.67,12714.53,8599.09
1389940.597,2408.46,12803.51,34078.32,33239.7,24603.23,28038.65,12582.69,8619.21
1389940.599,2542.93,12778.33,34097.91,33257.97,24618.06,28052.19,12546.97,8637.14
1389940.601,2992.2,12816.81,34115.84,33268.22,24625.69,28095.44,12616.73,8642.67
1389940.603,3511.91,12881.33,34125.62,33271.27,24618.34,28121.86,12727.07,8637.76
1389940.605,3900.24,12953.14,34106.07,33249.67,24587.3,28124.24,12841.7,8610.01
1389940.6072,3939.34,12991.14,34084.47,33229.02,24568.27,28115.66,12911.66,8589.22
1389940.6092,3608.75,13007.31,34072.93,33227.4,24564.22,28091.48,12891.44,8584.5
1389940.6112,2952.96,12938.02,34074.93,33241.47,24582.96,28054.1,12768.65,8598.76
1389940.6132,2495.05,12847.33,34091.43,33267.41,24609.14,28028.63,12631.94,8611.3
1389940.6152,2451.99,12790.35,34108.98,33284.86,24626.4,28030.45,12554.74,8626.75
1389940.6172,2845.0,12801.98,34115.18,33282.52,24623.02,28058.15,12579.92,8634.81
1389940.6192,3337.43,12854.1,34118.13,33273.51,24612.86,28095.06,12675.95,8635.52
1389940.6212,3830.81,12945.56,34115.37,33265.4,24601.84,28136.16,12809.66,8627.08
1389940.6232,3978.01,12998.73,34101.87,33252.53,24589.92,28153.09,12902.12,8615.3
1389940.6252,3803.92,13032.06,34090.95,33250.53,24585.77,28134.3,12922.62,8607.91
1389940.6272,3195.0,12981.8,34089.28,33247.43,24596.03,28087.95,12826.97,8618.5
1389940.6292,2626.37,12887.48,34094.48,33255.87,24616.34,28052.86,12681.72,8638.38
1389940.6312,2401.4,12798.07,34098.06,33267.88,24626.21,28026.11,12564.9,8644.44
1389940.6332,2691.89,12785.77,34106.59,33276.18,24627.31,28036.12,12555.36,8634.33
1389940.6352,3143.45,12819.01,34113.94,33276.9,24624.83,28077.75,12637.66,8626.61
1389940.6372,3677.94,12894.73,34109.36,33269.17,24606.9,28117.61,12761.98,8620.36
1389940.639,3943.11,12963.63,34095.77,33253.24,24591.16,28137.07,12871.36,8613.59
1389940.641,3908.78,13015.08,34089.95,33247.86,24588.06,28132.68,12925.77,8613.02
1389940.643,3407.62,12998.73,34086.04,33249.91,24592.45,28104.69,12866.69,8616.54
1389940.645,2793.5,12920.91,34096.77,33269.55,24617.82,28080.28,12734.75,8638.81
1389940.647,2433.01,12835.08,34115.08,33284.95,24645.24,28059.15,12609.15,8663.85
1389940.649,2581.26,12796.07,34121.18,33289.72,24647.38,28038.17,12562.04,8671.48
1389940.651,2984.71,12805.42,34117.85,33284.86,24636.61,28069.69,12607.62,8658.36
1389940.653,3520.73,12871.93,34116.18,33285.38,24624.26,28106.98,12716.34,8641.86
1389940.655,3900.19,12953.33,34107.98,33270.98,24604.13,28132.11,12839.7,8623.03
1389940.657,3974.1,13009.31,34098.82,33251.91,24590.69,28134.54,12918.19,8610.3
1389940.659,3620.67,13020.47,34089.86,33236.36,24584.44,28113.46,12905.65,8601.38
1389940.661,2987.86,12953.38,34086.42,33237.41,24596.6,28079.47,12786.29,8611.11
1389940.663,2480.55,12847.71,34090.09,33245.14,24612.86,28046.09,12634.95,8626.94
1389940.665,2468.3,12796.78,34108.93,33272.17,24631.03,28038.89,12560.85,8647.01
1389940.667,2837.61,12808.9,34122.8,33281.14,24636.18,28064.87,12590.7,8652.16
1389940.669,3347.44,12858.44,34126.48,33275.13,24624.16,28104.74,12686.44,8640.81
1389940.671,3804.25,12936.98,34116.32,33265.17,24605.56,28137.4,12811.9,8621.98
1389940.673,3985.83,12991.43,34095.2,33243.99,24587.97,28143.84,12905.07,8602.29
1389940.675,3778.32,13009.17,34067.35,33219.1,24565.65,28117.28,12918.19,8580.88
1389940.677,3180.65,12962.87,34055.24,33215.53,24566.8,28073.7,12818.96,8585.74
1389940.679,2601.53,12875.94,34071.83,33243.42,24598.6,28046.42,12678.67,8617.12
1389940.681,2417.71,12805.84,34097.25,33276.85,24626.31,28037.74,12571.77,8645.34
1389940.683,2688.17,12798.6,34106.16,33283.29,24631.07,28052.05,12564.61,8648.21
1389940.685,3157.23,12832.55,34117.46,33280.81,24628.88,28095.68,12644.34,8640.39
1389940.687,3686.48,12916.28,34123.38,33276.18,24619.34,28140.98,12773.71,8627.8
1389940.689,3982.35,12997.68,34122.71,33265.88,24612.24,28167.2,12895.92,8623.46
1389940.691,3916.65,13038.26,34103.54,33245.38,24596.46,28163.1,12944.03,8610.39
1389940.693,3416.97,13006.97,34081.51,33232.55,24586.97,28114.75,12873.13,8602.57
1389940.695,2775.14,12911.61,34077.93,33236.41,24599.56,28062.01,12724.16,8616.97
1389940.697,2420.66,12820.44,34095.48,33260.4,24624.88,28038.31,12593.22,8644.06
1389940.699,2562.33,12794.07,34110.03,33276.7,24635.41,28054.53,12553.26,8650.49
1389940.701,2987.77,12815.67,34121.71,33287.34,24637.42,28093.72,12611.25,8652.64
1389940.703,3523.49,12885.91,34121.9,33281.28,24626.4,28128.91,12723.45,8637.95
1389940.705,3891.09,12954.57,34103.83,33254.58,24600.56,28131.15,12833.41,8612.06
1389940.707,3953.6,12997.96,34080.94,33230.64,24572.09,28120.71,12901.02,8588.36
1389940.709,3598.98,13000.39,34066.82,33223.11,24565.41,28100.78,12880.04,8578.06
1389940.711,2966.36,12932.21,34063.87,33225.68,24579.72,28065.16,12760.12,8589.94
1389940.713,2474.21,12834.74,34080.41,33245.95,24609.47,28023.15,12621.36,8623.27
1389940.715,2462.96,12788.39,34100.68,33268.98,24626.78,28010.04,12546.78,8638.91
1389940.717,2819.06,12798.36,34109.79,33279.76,24626.59,28050.52,12578.39,8640.48
1389940.719,3343.44,12866.21,34121.09,33295.83,24622.4,28104.31,12689.4,8636.76
1389940.721,3802.11,12944.18,34116.51,33283.62,24604.9,28133.78,12812.0,8619.93
1389940.723,3982.83,12998.15,34093.34,33248.38,24576.14,28139.21,12900.54,8593.04
1389940.725,3771.93,13016.65,34076.5,33227.4,24563.74,28122.95,12921.14,8584.55
1389940.727,3200.58,12974.55,34072.31,33229.07,24573.23,28080.56,12825.54,8595.75
1389940.729,2602.82,12870.17,34078.75,33242.99,24599.22,28046.42,12673.62,8610.44
1389940.731,2431.15,12803.99,34098.15,33267.26,24623.35,28043.18,12575.82,8628.56
1389940.733,2689.31,12799.03,34120.23,33285.53,24639.8,28064.68,12566.95,8650.26
1389940.735,3166.96,12830.4,34118.51,33271.98,24625.5,28091.34,12634.28,8641.34
1389940.737,3650.81,12891.39,34103.35,33248.38,24602.13,28114.42,12752.2,8624.27
1389940.739,3957.46,12966.54,34094.72,33236.08,24590.88,28138.45,12871.84,8609.87
1389940.741,3885.89,13007.21,34083.75,33228.02,24583.01,28141.22,12926.1,8599.52
1389940.743,3424.31,12994.77,34078.94,33230.36,24584.44,28108.12,12870.07,8600.05
1389940.745,2768.99,12897.49,34082.94,33238.51,24602.65,28067.54,12723.02,8616.16
1389940.747,2433.2,12807.75,34097.15,33257.82,24623.49,28043.46,12596.27,8635.52
1389940.749,2547.65,12778.28,34108.83,33270.98,24632.89,28052.81,12550.55,8645.39
1389940.751,2991.53,12805.03,34114.79,33270.98,24629.5,28087.52,12609.91,8634.09
1389940.753,3493.88,12864.5,34110.93,33258.16,24616.15,28114.27,12719.78,8611.87
1389940.755,3899.86,12951.28,34099.44,33247.28,24599.03,28143.12,12845.23,8602.43
1389940.757,3949.02,13002.21,34081.13,33232.98,24582.53,28148.37,12921.86,8597.52
1389940.759,3619.67,13006.97,34064.63,33228.59,24571.23,28108.65,12894.54,8591.99
1389940.761,2958.82,12935.35,34062.58,33236.32,24584.58,28062.73,12766.08,8607.15
1389940.763,2498.05,12841.13,34078.89,33256.2,24612.14,28040.46,12625.36,8635.33
1389940.765,2468.4,12793.11,34096.63,33272.22,24630.22,28039.03,12552.88,8650.73
1389940.767,2837.94,12799.88,34103.92,33272.08,24628.45,28065.11,12580.78,8650.11
1389940.769,3321.7,12844.28,34101.54,33257.49,24611.05,28094.72,12666.8,8631.85
1389940.771,3795.53,12921.38,34095.63,33245.14,24589.92,28122.0,12786.58,8610.49
1389940.773,3965.09,12984.66,34087.9,33231.17,24579.72,28136.4,12882.57,8602.0
1389940.775,3775.98,13010.55,34078.36,33229.78,24578.48,28124.62,12900.88,8595.85
1389940.777,3192.71,12971.59,34074.36,33233.69,24588.68,28090.29,12810.66,8601.81
1389940.779,2630.66,12880.61,34088.57,33252.58,24615.1,28069.79,12671.09,8626.65
1389940.781,2441.79,12815.0,34106.88,33276.51,24633.79,28060.58,12565.04,8649.78
1389940.783,2706.72,12810.09,34125.62,33294.78,24641.33,28064.21,12556.51,8660.03
1389940.785,3158.43,12842.61,34125.62,33289.63,24627.59,28074.41,12627.41,8644.49
1389940.787,3667.55,12911.37,34124.33,33279.8,24614.62,28106.07,12749.01,8625.65
1389940.789,3957.99,12986.57,34114.17,33265.26,24600.6,28133.87,12870.84,8609.49
1389940.791,3888.94,13016.89,34096.53,33250.19,24588.59,28133.35,12916.23,8595.99
1389940.793,3421.69,13008.31,34093.34,33248.14,24595.5,28105.41,12865.4,8606.48
1389940.795,2779.05,12915.71,34093.29,33256.11,24613.91,28056.67,12722.3,8627.37
1389940.797,2433.97,12817.62,34091.43,33260.3,24620.58,28017.0,12582.78,8633.14
1389940.799,2567.91,12791.06,34111.17,33281.23,24631.36,28027.16,12545.49,8647.82
1389940.801,3002.21,12816.76,34113.08,33283.91,24623.35,28059.44,12600.95,8641.77
1389940.803,3489.3,12865.78,34103.21,33264.55,24603.51,28092.53,12697.98,8615.88
1389940.805,3886.37,12945.61,34093.72,33241.66,24583.63,28120.33,12820.67,8595.18
1389940.807,3935.05,12992.0,34084.23,33225.3,24575.14,28131.82,12904.12,8587.12
1389940.809,3616.05,13009.5,34077.55,33226.35,24577.43,28115.32,12897.92,8591.84
1389940.811,2953.63,12928.34,34068.02,33226.83,24588.02,28062.82,12763.55,8599.71
1389940.813,2496.91,12837.65,34081.89,33255.01,24613.91,28024.25,12621.21,8624.98
1389940.815,2473.31,12795.02,34111.17,33289.25,24643.57,28043.56,12555.17,8654.17
1389940.817,2851.34,12808.13,34121.8,33290.29,24643.71,28079.47,12583.45,8652.83
1389940.819,3319.84,12844.23,34118.37,33274.42,24627.21,28088.38,12669.28,8638.67
1389940.821,3807.74,12927.72,34111.22,33261.45,24604.85,28114.99,12797.02,8619.26
1389940.823,3962.23,12985.42,34097.34,33247.28,24591.64,28140.93,12896.3,8608.1
1389940.825,3790.95,13021.04,34087.38,33244.95,24585.39,28132.11,12918.24,8602.05
1389940.827,3183.56,12971.02,34076.55,33236.32,24589.35,28086.81,12822.11,8604.67
1389940.829,2639.82,12885.05,34090.62,33254.82,24616.39,28061.2,12692.12,8632.28
1389940.831,2428.15,12807.08,34099.77,33269.36,24632.03,28041.8,12574.72,8647.49
1389940.833,2710.96,12801.6,34108.79,33279.47,24634.17,28063.59,12569.76,8642.34
1389940.835,3155.52,12837.7,34117.27,33283.19,24631.88,28109.46,12651.87,8635.47
1389940.837,3682.23,12912.94,34116.7,33279.23,24615.0,28128.34,12773.23,8619.74
1389940.839,3933.24,12961.77,34087.9,33242.52,24580.1,28126.2,12866.02,8580.92
1389940.841,3890.23,13001.3,34071.74,33228.07,24564.65,28122.33,12915.99,8564.14
1389940.843,3395.22,12983.99,34060.67,33222.58,24568.56,28082.28,12858.11,8579.83
1389940.845,2777.72,12899.26,34064.34,33232.74,24589.02,28046.09,12720.97,8608.39
1389940.847,2424.72,12813.76,34084.23,33254.91,24617.34,28038.55,12598.33,8634.9
1389940.849,2578.64,12788.3,34099.25,33265.55,24629.31,28050.62,12562.94,8648.78
1389940.851,2989.82,12814.09,34111.31,33268.5,24633.36,28086.95,12621.98,8651.93
1389940.853,3521.16,12878.61,34115.6,33266.69,24622.97,28122.71,12733.56,8640.19
1389940.855,3896.19,12954.67,34109.6,33252.77,24606.42,28145.36,12856.06,8621.84
1389940.857,3967.86,13006.07,34100.58,33240.04,24594.12,28154.38,12938.12,8609.49
1389940.859,3612.66,13006.12,34087.04,33235.6,24587.01,28120.62,12908.03,8600.57
1389940.861,2979.66,12934.97,34083.61,33247.43,24600.08,28080.51,12782.24,8614.21
1389940.863,2496.2,12836.46,34096.86,33258.97,24625.54,28052.14,12641.24,8639.43
1389940.865,2498.34,12797.98,34126.67,33287.05,24650.05,28060.06,12571.72,8659.51
1389940.867,2862.36,12814.71,34144.12,33301.07,24659.21,28095.44,12604.76,8668.57
1389940.869,3358.36,12853.53,34137.78,33286.67,24639.75,28113.89,12689.54,8652.64
1389940.871,3821.61,12933.4,34125.52,33262.78,24614.15,28135.59,12813.62,8628.42
1389940.873,4001.86,12992.15,34105.88,33238.08,24593.26,28150.51,12905.98,8608.25
1389940.875,3796.34,13017.94,34091.1,33232.88,24581.67,28141.45,12921.76,8597.66
1389940.877,3207.4,12971.69,34087.14,33240.7,24591.73,28109.89,12825.87,8605.39
1389940.879,2619.17,12870.65,34095.1,33258.35,24617.01,28074.08,12674.76,8628.8
1389940.881,2422.19,12788.68,34109.6,33274.32,24637.8,28047.47,12563.18,8649.83
1389940.883,2701.86,12785.39,34121.61,33288.29,24644.85,28056.58,12561.89,8657.98
1389940.885,3164.63,12821.77,34131.05,33288.44,24641.47,28080.32,12635.9,8651.35
1389940.887,3674.32,12897.4,34126.24,33275.51,24620.92,28106.84,12753.63,8628.27
1389940.889,3952.93,12961.53,34111.65,33258.63,24597.17,28128.44,12859.39,8592.03
1389940.891,3899.15,13007.02,34099.68,33246.47,24587.59,28132.49,12917.0,8578.64
1389940.893,3417.06,12996.68,34099.3,33252.48,24601.65,28108.55,12868.22,8602.43
1389940.895,2783.35,12905.74,34098.68,33259.92,24620.25,28053.43,12718.35,8630.56
1389940.897,2433.2,12812.57,34110.45,33277.18,24640.71,28032.4,12593.18,8658.74
1389940.899,2582.5,12788.92,34123.47,33291.25,24651.05,28043.89,12555.89,8672.0
1389940.901,2991.68,12808.04,34129.0,33287.62,24645.52,28085.43,12608.43,8668.04
1389940.903,3514.67,12873.94,34124.71,33280.33,24627.64,28127.53,12720.4,8653.36
1389940.905,3885.79,12940.07,34104.83,33255.63,24599.94,28147.65,12836.74,8626.65
1389940.907,3966.05,13001.73,34099.49,33250.15,24592.97,28140.55,12923.86,8616.5
1389940.909,3618.0,13014.51,34098.06,33246.57,24595.45,28124.29,12908.84,8616.64
1389940.911,2967.74,12930.2,34082.46,33232.41,24596.93,28050.81,12769.32,8616.59
1389940.913,2459.72,12813.95,34080.94,33236.13,24611.14,28005.89,12615.54,8630.42
1389940.915,2454.95,12766.51,34095.67,33256.3,24625.83,28009.04,12540.53,8642.29
1389940.917,2813.86,12781.1,34111.93,33269.5,24637.65,28043.8,12562.71,8649.02
1389940.919,3324.89,12836.41,34115.41,33264.31,24625.88,28087.24,12661.03,8644.25
1389940.921,3784.08,12913.66,34110.84,33251.43,24608.23,28120.57,12786.15,8626.41
1389940.923,3974.87,12979.18,34101.2,33237.89,24596.36,28129.72,12885.95,8609.77
1389940.925,3765.63,13004.4,34092.91,33236.94,24592.93,28116.52,12905.03,8606.67
1389940.927,3184.37,12956.53,34081.42,33235.27,24591.93,28070.83,12807.66,8605.0
1389940.929,2592.85,12860.68,34092.67,33251.81,24616.05,28039.6,12661.84,8626.8
1389940.931,2432.35,12807.42,34123.85,33285.76,24648.05,28046.42,12575.44,8656.6
1389940.933,2690.55,12794.69,34130.86,33297.45,24652.87,28069.21,12569.24,8657.89
1389940.935,3158.24,12825.82,34125.57,33288.01,24636.99,28095.2,12636.81,8644.72
1389940.937,3650.33,12893.58,34115.75,33268.98,24615.72,28117.47,12754.35,8626.84
1389940.939,3961.28,12965.73,34094.96,33245.85,24589.49,28131.11,12867.98,8602.29
1389940.941,3885.65,13004.02,34080.18,33229.26,24579.67,28127.86,12918.9,8592.65
1389940.943,3413.73,12982.27,34070.02,33222.49,24578.0,28086.19,12851.0,8593.23
1389940.945,2757.69,12885.29,34071.59,33228.16,24593.07,28044.23,12700.85,8613.97
1389940.947,2428.44,12799.79,34086.04,33249.05,24613.19,28027.92,12576.87,8635.24
1389940.949,2555.9,12776.42,34107.59,33272.46,24630.98,28046.09,12544.16,8651.16
1389940.951,2990.2,12801.08,34116.37,33276.75,24630.07,28071.84,12597.47,8648.78
1389940.953,3492.78,12862.54,34117.61,33271.51,24619.58,28099.44,12705.28,8636.24
1389940.955,3906.01,12954.81,34117.42,33263.64,24608.61,28136.73,12837.65,8627.7
1389940.957,3951.88,13003.88,34098.3,33241.47,24588.54,28144.03,12911.04,8611.58
1389940.959,3617.95,13005.16,34078.7,33231.55,24575.28,28116.94,12889.29,8600.9
1389940.961,2968.36,12941.31,34087.66,33245.23,24598.55,28082.56,12768.99,8618.45
1389940.963,2506.64,12847.81,34110.22,33270.89,24634.65,28050.95,12629.65,8644.96
1389940.965,2480.79,12802.41,34130.29,33295.83,24656.82,28041.6,12555.08,8667.28
1389940.967,2848.01,12808.23,34138.11,33301.5,24655.35,28058.72,12579.68,8667.42
1389940.969,3334.33,12856.82,34135.97,33293.87,24641.18,28091.1,12672.38,8652.26
1389940.971,3814.22,12938.64,34128.72,33279.23,24619.2,28116.52,12796.64,8630.94
1389940.973,3980.26,13003.54,34113.55,33263.45,24601.51,28140.93,12902.17,8611.87
1389940.975,3797.82,13034.97,34102.35,33255.49,24593.5,28142.31,12924.53,8602.91
1389940.977,3198.81,12985.52,34088.66,33243.61,24594.93,28096.82,12820.87,8604.05
1389940.979,2614.69,12875.84,34086.57,33249.1,24609.23,28049.28,12668.33,8626.13
1389940.981,2421.86,12804.27,34102.63,33271.13,24628.12,28036.55,12563.37,8646.3
1389940.983,2689.89,12793.49,34114.41,33284.24,24634.98,28037.46,12551.26,8650.02
1389940.985,3152.51,12825.44,34115.46,33277.56,24627.16,28070.83,12630.75,8640.05
1389940.987,3660.25,12895.78,34112.12,33261.92,24609.09,28104.21,12753.01,8622.08
1389940.989,3957.08,12975.65,34102.97,33246.9,24593.45,28130.2,12870.79,8607.1
1389940.9911,3898.0,13016.8,34096.53,33238.75,24589.11,28137.26,12925.34,8602.57
1389940.9931,3427.89,13005.59,34089.76,33241.66,24590.45,28107.12,12868.79,8607.44
1389940.9951,2780.91,12912.27,34089.24,33250.96,24605.85,28066.59,12724.31,8626.22
1389940.9971,2447.18,12830.21,34102.73,33273.7,24629.07,28042.03,12598.13,8650.49
1389940.9991,2576.21,12803.6,34125.14,33296.26,24646.24,28041.18,12555.7,8666.61
1389941.0011,3005.27,12824.54,34124.71,33292.25,24637.99,28064.35,12604.95,8662.42
1389941.0031,3503.47,12878.47,34120.99,33282.19,24621.2,28102.97,12712.77,8648.35
1389941.0051,3920.7,12967.54,34113.27,33275.75,24604.61,28145.7,12842.42,8633.09
1389941.0071,3974.15,13019.61,34107.4,33266.12,24597.84,28166.82,12921.24,8623.36
1389941.0091,3648.42,13036.73,34101.97,33265.31,24599.08,28130.2,12912.13,8623.22
1389941.0111,2993.97,12964.3,34105.59,33271.6,24619.3,28078.85,12789.58,8642.48
1389941.0131,2533.34,12868.45,34113.7,33284.62,24640.56,28055.05,12649.87,8662.51
1389941.0151,2494.05,12817.91,34132.82,33303.88,24658.83,28068.02,12576.49,8680.87
1389941.0171,2879.05,12835.74,34149.6,33312.99,24664.69,28108.31,12612.54,8682.3
1389941.0191,3360.41,12884.43,34154.9,33306.65,24658.21,28153.8,12708.57,8673.62
1389941.0211,3853.18,12973.55,34155.47,33299.12,24644.33,28178.17,12841.13,8659.27
1389941.0231,4009.49,13026.19,34138.11,33279.71,24624.83,28185.28,12934.45,8642.91
1389941.0251,3835.34,13056.33,34124.9,33272.56,24611.76,28178.74,12956.53,8634.52
1389941.0271,3227.28,13005.02,34118.56,33271.56,24620.39,28135.45,12860.01,8640.39
1389941.0291,2656.56,12899.07,34112.31,33278.37,24633.08,28079.23,12704.85,8640.48
1389941.0311,2434.11,12819.15,34121.61,33295.78,24650.72,28057.77,12587.83,8661.32
1389941.0331,2719.78,12818.15,34138.35,33311.18,24660.07,28079.56,12584.83,8680.3
1389941.0351,3163.67,12850.0,34141.97,33303.22,24654.92,28108.08,12660.7,8676.34
1389941.0371,3699.35,12923.43,34135.3,33292.82,24635.56,28140.07,12783.2,8655.55
1389941.0391,3961.61,12980.46,34109.41,33265.64,24604.23,28145.94,12881.61,8624.03
1389941.0411,3905.96,13007.93,34080.22,33249.67,24577.76,28122.86,12918.0,8599.9
1389941.0431,3402.42,12983.13,34067.21,33248.09,24575.28,28079.66,12848.19,8594.66
1389941.0451,2782.44,12899.83,34072.74,33253.2,24594.93,28043.04,12708.24,8611.44
1389941.0471,2420.38,12810.76,34090.19,33260.97,24623.59,28030.3,12581.02,8636.24
1389941.0491,2576.64,12791.97,34113.36,33283.76,24642.33,28048.42,12548.88,8654.21
1389941.0511,2973.22,12805.51,34114.32,33276.61,24632.55,28072.03,12598.33,8644.53
1389941.0531,3515.15,12877.18,34122.95,33281.95,24625.02,28122.81,12715.87,8640.34
1389941.0551,3911.45,12968.11,34125.05,33277.42,24617.63,28159.57,12849.05,8637.48
1389941.0571,3980.4,13013.32,34104.16,33259.3,24597.79,28148.27,12918.9,8622.93
1389941.0591,3603.41,13003.64,34072.78,33236.13,24581.1,28087.48,12883.86,8602.62
1389941.0611,2963.73,12926.1,34062.34,33231.12,24590.83,28042.03,12760.55,8607.48
1389941.0631,2479.12,12834.31,34080.46,33248.57,24618.01,28023.15,12627.17,8633.09
1389941.0651,2470.11,12789.44,34103.92,33270.36,24640.94,28026.63,12555.27,8656.31
1389941.0671,2824.4,12801.36,34117.18,33276.37,24640.61,28053.72,12584.16,8659.08
1389941.0691,3320.84,12847.95,34117.94,33267.6,24626.07,28089.38,12675.95,8644.49
1389941.0711,3795.2,12933.68,34115.32,33254.29,24608.0,28124.72,12804.41,8628.61
1389941.0731,3980.78,12996.15,34107.83,33240.37,24594.88,28142.36,12903.41,8613.97
1389941.0751,3784.7,13024.28,34094.77,33233.22,24585.77,28125.43,12919.0,8604.1
1389941.0771,3199.1,12976.93,34093.53,33242.9,24596.84,28088.29,12823.77,8614.83
1389941.0791,2620.17,12880.14,34102.97,33257.68,24622.59,28052.29,12674.24,8635.19
1389941.0811,2421.19,12801.6,34114.36,33275.8,24640.85,28027.63,12563.04,8651.45
1389941.0831,2693.32,12799.36,34126.95,33288.05,24648.14,28046.18,12564.85,8655.69
1389941.0851,3151.94,12833.07,34130.39,33283.95,24644.66,28084.57,12638.28,8651.4
1389941.0871,3666.54,12906.36,34119.28,33271.36,24622.2,28116.52,12755.4,8633.19
1389941.0891,3942.44,12969.3,34102.78,33251.67,24598.98,28133.44,12859.01,8613.87
1389941.0911,3893.76,13010.55,34091.29,33238.84,24588.02,28131.06,12913.23,8602.19
1389941.0931,3407.86,12990.14,34086.23,33235.89,24596.6,28091.15,12854.01,8607.05
1389941.0951,2780.87,12906.89,34093.77,33248.33,24619.73,28051.9,12719.92,8632.04
1389941.0971,2415.71,12813.67,34105.73,33268.74,24638.56,28029.25,12588.79,8655.26
1389941.0991,2561.76,12788.34,34114.27,33283.43,24642.42,28027.35,12542.06,8662.22
1389941.1011,2960.54,12798.31,34111.65,33271.94,24630.36,28054.53,12585.59,8649.78
1389941.1031,3494.45,12868.45,34112.46,33272.6,24617.96,28097.44,12705.28,8631.61
1389941.1051,3877.07,12948.61,34102.11,33267.65,24602.8,28135.02,12835.69,8618.98
1389941.1071,3951.03,13003.26,34087.14,33260.64,24590.21,28142.98,12914.56,8608.29
1389941.1091,3594.21,12998.2,34070.88,33252.39,24581.24,28105.88,12873.7,8601.09
1389941.1111,2970.74,12929.44,34068.02,33247.38,24589.06,28056.05,12752.39,8613.06
1389941.1131,2478.12,12834.6,34085.95,33261.45,24617.53,28032.21,12616.73,8642.25
1389941.1151,2474.4,12798.22,34111.46,33288.72,24642.23,28034.07,12549.4,8661.8
1389941.1171,2804.04,12791.49,34109.22,33282.19,24634.79,28047.28,12559.46,8651.78
1389941.1191,3314.64,12840.32,34109.74,33275.42,24619.3,28080.85,12651.54,8640.39
1389941.1211,3776.65,12923.96,34111.93,33268.17,24605.8,28117.95,12784.67,8631.14
1389941.1231,3976.82,12993.1,34097.63,33254.58,24589.83,28136.78,12890.29,8611.49
1389941.1251,3775.64,13021.38,34093.57,33251.19,24588.64,28139.45,12909.8,8604.86
1389941.1271,3221.23,12984.94,34090.48,33249.67,24598.79,28110.7,12823.11,8613.4
1389941.1291,2620.55,12874.13,34087.33,33248.43,24612.72,28038.51,12668.13,8626.56
1389941.1311,2432.3,12801.31,34099.82,33266.88,24632.41,28001.55,12554.12,8647.11
1389941.1331,2681.68,12798.45,34118.37,33281.85,24645.47,28036.03,12554.65,8662.8
1389941.1351,3158.52,12833.64,34120.52,33278.71,24634.75,28075.84,12627.32,8654.5
1389941.1371,3644.18,12899.78,34113.08,33263.5,24614.86,28111.79,12739.37,8636.0
1389941.1391,3954.51,12982.89,34109.5,33254.68,24600.65,28134.78,12858.77,8619.98
1389941.1411,3879.45,13019.52,34097.29,33247.19,24588.06,28127.24,12909.08,8608.25
1389941.1431,3429.03,13009.5,34092.05,33249.14,24590.45,28088.76,12857.25,8607.01
1389941.1451,2775.57,12917.95,34090.81,33253.01,24607.33,28040.13,12715.15,8622.93
1389941.1471,2435.11,12824.58,34095.39,33264.21,24622.01,28014.62,12583.54,8638.43
1389941.1491,2549.12,12795.35,34107.98,33280.33,24633.36,28032.97,12549.5,8654.6
1389941.1511,2978.71,12816.62,34110.5,33277.9,24633.08,28072.31,12608.96,8653.59
1389941.1531,3479.15,12875.8,34108.79,33267.88,24617.87,28106.36,12720.3,8639.38
1389941.1551,3886.94,12953.24,34097.63,33253.29,24594.6,28123.81,12837.84,8619.45
1389941.1571,3936.01,12996.72,34080.18,33235.22,24579.96,28135.02,12911.7,8604.0
1389941.1591,3618.15,13000.78,34065.35,33235.94,24573.52,28099.68,12889.48,8589.17
1389941.1611,2958.63,12921.62,34049.18,33230.26,24573.9,28036.79,12750.67,8582.78
1389941.1631,2478.93,12825.59,34060.15,33244.28,24597.46,28010.85,12609.58,8609.06
1389941.1651,2450.04,12786.77,34086.14,33271.51,24621.87,28019.38,12545.83,8641.63
1389941.1671,2821.68,12802.98,34102.25,33284.72,24625.21,28056.77,12579.11,8651.69
1389941.1691,3313.21,12864.26,34113.55,33289.1,24622.59,28102.83,12681.34,8646.82
1389941.1711,3790.19,12942.94,34108.26,33271.51,24605.85,28128.77,12803.03,8627.8
1389941.1731,3961.75,12997.2,34087.04,33244.09,24581.39,28136.45,12895.63,8605.2
1389941.1751,3784.13,13021.52,34077.6,33240.13,24575.33,28129.25,12915.85,8604.96
1389941.1771,3220.51,12992.72,34083.7,33251.43,24595.36,28100.68,12836.03,8626.65
1389941.1791,2634.33,12888.72,34087.23,33257.2,24615.1,28058.77,12684.2,8641.91
1389941.1811,2433.82,12813.76,34099.25,33271.03,24630.98,28027.2,12572.67,8655.64
1389941.1831,2691.6,12804.22,34118.99,33284.91,24642.04,28052.24,12568.76,8665.13
1389941.1851,3148.79,12839.22,34120.37,33276.75,24633.7,28086.14,12642.53,8654.12
1389941.1871,3643.47,12905.41,34108.45,33261.92,24612.76,28124.15,12758.45,8634.71
1389941.1891,3939.82,12977.22,34090.71,33242.28,24589.92,28147.84,12872.08,8614.73
1389941.1911,3882.31,13013.32,34079.98,33234.03,24582.68,28150.7,12922.48,8604.48
1389941.1931,3435.09,13009.6,34079.51,33238.22,24588.78,28123.05,12874.32,8613.4
1389941.1951,2789.64,12917.52,34082.94,33248.81,24609.09,28077.94,12730.5,8632.47
1389941.1971,2441.31,12825.3,34088.57,33260.97,24625.26,28041.41,12597.75,8647.87
1389941.1991,2548.27,12790.54,34102.06,33274.18,24634.84,28041.32,12550.64,8655.36
1389941.2011,2975.18,12810.42,34103.59,33269.27,24625.5,28065.92,12597.99,8645.34
1389941.2031,3465.65,12858.87,34099.54,33258.39,24607.14,28095.77,12697.7,8626.27
1389941.2051,3880.22,12945.8,34091.57,33249.95,24589.11,28127.67,12820.25,8608.06
1389941.2071,3935.96,12991.24,34075.65,33235.22,24574.71,28137.02,12895.73,8593.85
1389941.2091,3629.49,13006.45,34069.92,33233.31,24575.9,28109.08,12883.0,8592.32
1389941.2111,2977.18,12933.78,34065.39,33232.03,24585.15,28067.02,12762.6,8603.86
1389941.2131,2519.51,12844.61,34076.55,33249.67,24606.66,28044.99,12626.17,8624.08
1389941.2151,2470.06,12797.83,34098.44,33274.65,24630.12,28050.38,12551.69,8645.01
1389941.2171,2850.25,12817.0,34114.7,33286.77,24637.85,28084.19,12585.88,8651.4
1389941.2191,3310.01,12850.0,34110.98,33275.51,24623.21,28112.84,12670.76,8634.47
1389941.2211,3805.45,12936.88,34106.16,33272.41,24607.28,28145.13,12802.65,8619.45
1389941.2231,3972.53,12999.35,34096.25,33254.91,24595.17,28161.67,12901.83,8608.49
1389941.2251,3806.16,13026.38,34076.69,33235.27,24579.48,28137.78,12915.28,8595.56
1389941.2271,3199.05,12970.83,34063.53,33223.92,24580.67,28092.34,12811.52,8597.04
1389941.2291,2637.58,12880.37,34075.26,33242.61,24606.37,28054.05,12670.66,8618.26
1389941.2311,2417.37,12809.56,34096.01,33271.7,24630.84,28036.26,12561.99,8643.34
1389941.2331,2699.9,12806.61,34109.17,33279.85,24634.17,28055.15,12558.46,8649.97
1389941.2351,3143.79,12840.65,34116.32,33271.89,24627.5,28096.39,12632.32,8641.96
1389941.2371,3666.26,12913.85,34111.84,33260.78,24608.33,28131.97,12751.49,8621.79
1389941.2391,3942.01,12983.71,34097.06,33241.71,24591.64,28151.8,12863.83,8604.91
1389941.2411,3914.02,13033.87,34087.61,33238.03,24588.87,28161.62,12926.1,8601.86
1389941.2431,3432.89,13016.37,34075.45,33235.36,24590.64,28123.19,12867.4,8605.05
1389941.2451,2800.89,12921.14,34068.92,33239.27,24601.99,28074.51,12720.63,8614.83
1389941.2471,2421.76,12824.11,34074.36,33250.57,24615.62,28051.9,12585.55,8629.28
1389941.2491,2569.29,12806.8,34102.83,33280.95,24637.85,28079.85,12551.98,8652.35
1389941.2511,2983.52,12834.84,34121.14,33291.77,24645.38,28096.82,12609.29,8661.22
1389941.2531,3501.75,12887.24,34118.8,33278.99,24627.31,28097.54,12706.19,8643.72
1389941.2551,3889.08,12964.49,34113.98,33259.3,24608.81,28128.15,12830.31,8624.36
1389941.2571,3973.96,13021.66,34107.12,33250.0,24597.46,28146.22,12915.9,8608.72
1389941.2591,3648.66,13039.64,34097.58,33253.39,24597.55,28123.67,12899.73,8606.96
1389941.2611,3024.48,12975.74,34099.49,33266.36,24614.05,28089.24,12783.0,8630.23
1389941.2631,2526.62,12876.51,34107.4,33277.9,24633.94,28065.83,12643.15,8654.55
1389941.2651,2488.57,12818.86,34118.7,33295.68,24645.71,28053.0,12559.27,8666.9
1389941.2671,2840.09,12827.68,34123.85,33298.93,24646.67,28066.54,12586.31,8670.09
1389941.2691,3338.0,12879.85,34131.48,33296.73,24642.42,28106.65,12684.39,8668.23
1389941.2711,3801.87,12955.62,34124.28,33277.9,24618.82,28139.02,12806.04,8641.63
1389941.2731,3972.48,13002.44,34096.2,33246.95,24589.88,28140.6,12888.72,8611.11
1389941.2751,3791.09,13025.14,34074.69,33230.83,24578.38,28118.18,12906.7,8598.9
1389941.2771,3216.08,12984.28,34072.78,33238.37,24589.68,28087.86,12819.1,8613.44
1389941.2791,2633.76,12888.91,34076.5,33249.43,24609.85,28054.29,12677.19,8635.38
1389941.2811,2430.01,12818.24,34100.25,33280.95,24638.08,28042.18,12577.44,8660.27
1389941.2831,2707.77,12820.91,34124.9,33305.98,24655.11,28076.08,12579.25,8675.72
1389941.2851,3156.47,12849.52,34131.34,33301.64,24647.62,28112.46,12650.25,8666.18
1389941.2871,3671.07,12918.28,34122.9,33282.0,24624.78,28134.4,12761.74,8630.23
1389941.2891,3954.98,12974.45,34105.45,33254.44,24598.55,28142.36,12867.12,8601.24
1389941.2911,3914.4,13018.75,34092.81,33243.33,24584.77,28140.98,12925.44,8594.7
1389941.2931,3441.62,13007.45,34087.81,33249.0,24590.45,28109.79,12873.03,8609.25
1389941.2951,2827.36,12932.54,34100.97,33267.93,24618.29,28077.08,12740.66,8641.77
1389941.2971,2452.95,12839.46,34115.7,33286.53,24646.48,28054.05,12608.58,8670.86
1389941.2991,2577.35,12809.09,34121.23,33289.77,24649.19,28054.43,12558.65,8673.14
1389941.3011,2979.57,12825.68,34124.62,33278.42,24644.38,28090.53,12611.1,8665.52
1389941.3031,3502.37,12881.95,34119.04,33257.68,24625.07,28121.52,12715.87,8646.68
1389941.3051,3878.12,12950.37,34105.78,33240.56,24604.28,28146.46,12833.26,8626.32
1389941.3071,3959.32,13001.35,34085.33,33221.77,24585.68,28149.42,12913.13,8608.49
1389941.3091,3624.15,13009.55,34073.4,33219.39,24578.57,28126.05,12895.82,8602.43
1389941.3111,3008.84,12945.65,34071.4,33225.64,24589.02,28081.47,12774.95,8611.44
1389941.3131,2493.52,12833.22,34075.41,33237.37,24606.9,28042.03,12624.22,8627.46
1389941.3151,2483.99,12793.26,34098.15,33269.6,24632.17,28048.18,12558.46,8650.64
1389941.3171,2830.08,12806.56,34116.46,33285.76,24644.71,28083.8,12590.36,8659.79
1389941.3191,3337.05,12859.11,34117.04,33279.9,24635.41,28121.62,12686.92,8648.25
1389941.3211,3796.39,12940.93,34113.13,33266.31,24622.82,28155.9,12811.33,8634.71
1389941.3231,4001.38,13010.46,34104.26,33252.24,24605.94,28174.83,12912.85,8622.89
1389941.3251,3806.97,13039.54,34098.92,33255.77,24602.46,28166.92,12937.88,8621.31
1389941.3271,3255.32,13010.07,34103.97,33270.46,24620.11,28135.21,12861.01,8637.19
1389941.3291,2650.02,12902.74,34106.5,33273.7,24635.7,28092.77,12705.52,8652.12
1389941.3311,2451.42,12820.77,34111.31,33281.43,24642.33,28057.39,12576.53,8659.03
1389941.3331,2689.7,12808.47,34123.0,33284.38,24649.0,28067.88,12565.52,8667.66
1389941.3351,3161.14,12845.9,34127.76,33280.47,24643.47,28103.78,12644.2,8662.27
1389941.3371,3658.53,12920.19,34126.76,33271.6,24629.64,28142.65,12766.74,8649.02
1389941.3391,3971.72,12989.86,34110.5,33252.82,24605.56,28154.09,12877.8,8622.7
1389941.3411,3900.0,13015.99,34085.85,33229.45,24582.68,28143.08,12919.09,8603.19
1389941.3431,3451.82,13004.97,34078.08,33229.02,24582.63,28118.09,12866.59,8604.34
1389941.3451,2810.24,12918.76,34082.23,33239.99,24604.66,28085.95,12727.41,8623.12
1389941.3471,2461.15,12825.01,34090.48,33258.87,24625.21,28058.2,12594.13,8642.67
1389941.3491,2560.14,12792.3,34101.16,33272.08,24637.42,28037.41,12551.74,8654.26
1389941.3511,2997.68,12822.92,34118.18,33278.37,24646.86,28060.82,12612.77,8660.75
1389941.3531,3498.17,12881.47,34108.69,33265.36,24628.79,28103.26,12719.63,8648.35
1389941.3551,3908.54,12962.15,34099.82,33256.73,24607.33,28134.83,12838.08,8632.09
1389941.3571,3971.77,13016.8,34090.57,33246.19,24592.12,28152.47,12920.0,8618.78
1389941.3591,3654.86,13031.82,34086.42,33249.14,24589.68,28134.64,12906.74,8614.45
1389941.3611,3004.6,12964.77,34085.71,33253.72,24605.56,28093.06,12786.44,8632.42
1389941.3631,2517.7,12862.35,34094.53,33262.92,24630.26,28057.86,12639.43,8656.55
1389941.3651,2482.51,12818.19,34117.27,33286.29,24655.44,28060.53,12567.0,8678.63
1389941.3671,2845.48,12829.07,34128.72,33293.35,24659.83,28083.66,12598.18,8681.54
1389941.3691,3336.95,12882.66,34133.72,33290.2,24651.48,28118.47,12694.36,8673.53
1389941.3711,3814.03,12954.19,34123.04,33272.7,24630.45,28150.51,12811.38,8652.5
1389941.3731,3989.51,13007.07,34098.34,33248.0,24603.51,28156.33,12902.93,8622.55
1389941.3751,3805.69,13030.01,34087.04,33247.14,24594.69,28125.96,12921.95,8610.01
1389941.3771,3230.38,12989.81,34082.18,33250.76,24601.08,28080.32,12829.83,8615.78
1389941.3791,2640.44,12890.15,34093.77,33271.08,24624.35,28046.42,12682.73,8635.28
1389941.3811,2443.79,12825.78,34113.27,33301.69,24648.67,28038.17,12580.44,8659.75
1389941.3831,2694.42,12813.33,34121.33,33309.03,24657.2,28056.2,12565.81,8670.0
1389941.3851,3154.37,12842.85,34115.94,33287.05,24642.42,28086.95,12634.99,8657.6
1389941.3871,3654.39,12907.22,34104.69,33259.49,24614.19,28115.47,12753.15,8632.09
1389941.3891,3961.28,12982.75,34088.57,33236.46,24590.59,28135.35,12869.79,8609.53
1389941.3911,3904.72,13024.71,34080.7,33231.07,24586.97,28137.12,12925.82,8603.53
1389941.3931,3456.5,13022.71,34083.37,33242.18,24597.22,28111.84,12877.18,8616.02
1389941.3951,2805.85,12937.93,34096.1,33259.49,24624.64,28080.75,12741.09,8642.87
1389941.3971,2454.95,12848.28,34104.4,33271.98,24638.37,28053.48,12609.2,8662.46
1389941.3991,2563.38,12813.05,34120.18,33288.39,24652.2,28055.96,12565.47,8679.49
1389941.4011,2993.06,12838.65,34128.0,33293.01,24651.01,28084.57,12616.64,8680.11
1389941.4031,3484.44,12885.95,34117.85,33276.9,24631.74,28114.27,12711.48,8659.51
1389941.4051,3900.0,12966.87,34105.92,33256.2,24608.85,28136.54,12838.37,8636.95
1389941.4072,3962.9,13024.0,34099.39,33247.47,24602.51,28153.71,12925.91,8631.14
1389941.4092,3659.25,13048.7,34095.01,33249.67,24606.37,28145.51,12922.62,8631.14
1389941.4112,2999.26,12972.4,34085.23,33248.95,24617.48,28087.09,12794.54,8636.48
1389941.4132,2516.03,12867.88,34089.24,33259.21,24633.55,28039.74,12648.39,8652.12
1389941.4152,2456.09,12807.56,34102.4,33274.13,24645.28,28037.27,12562.47,8668.9
1389941.4172,2826.64,12812.43,34105.83,33271.32,24637.08,28055.91,12579.82,8664.51
1389941.4192,3297.81,12847.43,34105.59,33256.53,24618.53,28092.05,12665.75,8648.54
1389941.4212,3807.26,12935.59,34109.31,33250.62,24605.94,28138.5,12801.36,8626.8
1389941.4232,3979.35,13003.59,34102.25,33241.18,24599.46,28161.58,12903.6,8609.58
1389941.4252,3807.35,13030.63,34084.23,33233.6,24587.54,28139.26,12923.43,8603.34
1389941.4272,3201.77,12982.61,34075.26,33237.08,24594.98,28083.47,12825.3,8618.36
1389941.4292,2634.72,12888.15,34079.6,33256.44,24616.2,28034.5,12678.29,8644.77
1389941.4312,2405.83,12810.52,34093.15,33276.7,24636.03,28019.05,12567.57,8665.99
1389941.4332,2686.26,12806.66,34111.22,33289.72,24647.05,28047.37,12561.23,8675.15
1389941.4352,3129.15,12836.36,34115.99,33285.48,24641.04,28088.14,12633.85,8665.71
1389941.4372,3672.79,12921.81,34121.42,33283.57,24631.79,28125.91,12766.51,8656.93
1389941.4391,3960.66,12995.63,34110.12,33259.3,24613.81,28145.27,12880.14,8639.53
1389941.4411,3935.15,13042.12,34102.83,33254.53,24606.09,28148.13,12934.64,8627.46
1389941.4431,3445.77,13019.66,34089.43,33247.0,24601.75,28108.22,12873.22,8617.93
1389941.4451,2811.81,12926.63,34086.28,33253.01,24614.1,28067.07,12730.31,8627.42
1389941.4471,2433.44,12831.78,34098.44,33259.06,24634.6,28044.85,12595.51,8647.25
1389941.4491,2573.4,12809.09,34118.32,33272.56,24649.53,28057.77,12553.98,8667.28
1389941.4511,2979.76,12833.98,34125.24,33275.37,24646.0,28100.68,12611.1,8669.85
1389941.4531,3512.14,12899.21,34130.67,33277.8,24639.04,28139.79,12725.31,8662.56
1389941.4551,3905.49,12978.27,34117.37,33259.16,24617.34,28145.79,12849.09,8643.06
1389941.4571,3981.64,13023.19,34099.06,33233.65,24598.36,28132.63,12924.48,8623.22
1389941.4591,3653.19,13033.82,34090.81,33227.69,24598.79,28119.38,12909.46,8618.93
1389941.4611,3009.84,12955.14,34077.36,33224.97,24602.37,28067.16,12775.85,8622.6
1389941.4631,2499.34,12850.57,34073.74,33229.5,24611.76,28027.01,12623.84,8635.9
1389941.4651,2459.91,12800.89,34094.05,33254.91,24631.65,28031.59,12548.5,8656.41
1389941.4671,2824.12,12822.25,34114.03,33271.03,24642.61,28070.12,12581.54,8664.94
1389941.4691,3323.03,12875.18,34128.1,33276.75,24640.94,28108.5,12678.67,8661.18
1389941.4711,3811.88,12961.72,34129.53,33267.69,24625.59,28140.6,12807.23,8646.01
1389941.4731,3997.71,13016.42,34108.69,33241.66,24597.93,28153.33,12901.31,8622.65
1389941.4751,3816.99,13042.74,34091.05,33232.31,24582.15,28134.87,12923.77,8609.2
1389941.4771,3221.94,12990.76,34083.32,33233.55,24593.02,28093.48,12826.02,8618.5
1389941.4791,2638.48,12892.87,34089.81,33248.76,24619.06,28058.44,12673.43,8643.29
1389941.4811,2434.3,12828.02,34117.51,33278.9,24649.72,28063.59,12578.3,8671.86
1389941.4831,2704.14,12827.78,34129.48,33288.15,24657.78,28086.47,12580.11,8678.87
1389941.4851,3143.41,12844.47,34120.09,33270.7,24642.61,28095.25,12638.81,8662.84
1389941.4871,3669.6,12917.19,34111.79,33259.35,24623.21,28120.81,12757.02,8642.72
1389941.4891,3964.04,12987.9,34099.49,33244.09,24606.18,28145.6,12875.42,8628.99
1389941.4911,3934.91,13035.59,34090.0,33237.27,24596.74,28149.18,12934.64,8621.74
1389941.4931,3457.64,13023.9,34084.71,33241.09,24598.89,28115.56,12882.47,8628.56
1389941.4951,2824.93,12937.4,34082.23,33247.24,24612.48,28065.11,12737.18,8641.82
1389941.4971,2438.12,12839.84,34094.67,33265.64,24630.5,28031.4,12596.13,8662.89
1389941.4991,2568.72,12811.19,34108.79,33276.61,24636.27,28032.45,12549.45,8668.61
1389941.5011,2959.97,12819.63,34103.87,33266.41,24631.55,28062.87,12593.03,8659.41
1389941.5031,3494.45,12890.67,34101.87,33259.59,24618.63,28107.69,12709.62,8646.16
1389941.5051,3893.23,12976.89,34100.39,33252.91,24608.61,28144.51,12843.09,8632.47
1389941.5071,3984.31,13034.15,34092.14,33240.99,24600.17,28152.61,12926.91,8621.88
1389941.5091,3642.94,13037.54,34082.13,33235.7,24597.08,28124.72,12905.03,8615.11
1389941.5111,3021.53,12976.55,34082.18,33244.28,24611.91,28082.04,12786.53,8634.09
1389941.5131,2514.89,12876.23,34094.0,33261.3,24635.46,28054.81,12641.81,8661.7
1389941.5151,2494.24,12827.59,34113.79,33282.95,24652.91,28057.44,12563.37,8678.25
1389941.5171,2827.07,12826.83,34118.32,33280.81,24649.19,28075.51,12579.44,8673.81
1389941.5191,3333.52,12881.57,34125.52,33283.19,24640.8,28118.09,12678.77,8667.66
1389941.5211,3804.73,12961.2,34127.76,33278.42,24628.21,28155.23,12808.56,8658.79
1389941.5231,4011.82,13025.67,34115.51,33264.5,24610.95,28152.56,12908.46,8637.57
1389941.5251,3813.17,13046.27,34098.53,33250.86,24593.88,28123.67,12929.06,8618.5
1389941.5271,3248.88,13007.55,34094.77,33256.11,24600.94,28092.15,12842.51,8620.69
1389941.5291,2654.36,12911.23,34107.16,33276.37,24628.83,28060.01,12699.51,8647.44
1389941.5311,2460.1,12838.32,34122.95,33298.93,24650.24,28044.61,12588.41,8669.28
1389941.5331,2696.99,12822.58,34132.68,33307.08,24653.58,28061.58,12574.72,8676.34
1389941.5351,3156.57,12849.38,34125.0,33291.11,24637.51,28080.23,12637.09,8657.93
1389941.5371,3654.43,12918.43,34120.09,33272.75,24619.49,28114.04,12752.82,8637.24
1389941.5391,3979.3,13001.49,34111.89,33259.01,24603.85,28148.85,12876.37,8627.7
1389941.5411,3917.17,13037.49,34093.0,33246.09,24587.16,28152.33,12928.3,8615.49
1389941.5431,3466.23,13026.62,34082.08,33249.81,24590.07,28120.71,12879.33,8620.26
1389941.5451,2798.7,12930.44,34077.31,33248.43,24603.23,28049.81,12731.22,8633.52
1389941.5471,2449.13,12841.18,34089.14,33257.63,24621.63,28023.91,12600.09,8651.21
1389941.5491,2559.09,12813.19,34107.16,33270.6,24636.46,28046.8,12559.03,8662.18
1389941.5511,2995.92,12845.37,34122.28,33279.09,24639.9,28084.81,12611.58,8667.66
1389941.5531,3505.14,12913.32,34128.15,33277.09,24631.5,28132.63,12725.4,8662.18
1389941.5551,3919.74,12993.81,34119.75,33266.74,24610.43,28157.91,12847.23,8639.53
1389941.5571,3975.39,13040.12,34100.54,33249.53,24589.88,28155.33,12917.23,8619.12
1389941.5591,3652.67,13036.49,34081.46,33241.04,24579.58,28117.76,12895.63,8603.76
1389941.5611,3008.46,12967.4,34082.23,33242.18,24596.03,28080.51,12782.05,8617.59
1389941.5631,2523.33,12871.12,34096.15,33263.97,24621.39,28035.17,12636.62,8650.11
1389941.5651,2472.97,12819.01,34110.36,33284.05,24640.52,28024.72,12554.46,8667.9
1389941.5671,2833.41,12829.02,34123.66,33293.49,24649.05,28054.48,12585.69,8674.19
1389941.5691,3326.27,12876.94,34127.05,33286.43,24640.94,28099.97,12679.77,8667.66
1389941.5711,3811.03,12950.71,34120.85,33272.84,24624.73,28140.17,12810.09,8650.21
1389941.5731,4009.2,13019.23,34111.5,33257.49,24606.99,28164.82,12914.23,8632.09
1389941.5751,3831.1,13046.22,34101.44,33251.05,24599.98,28149.27,12936.83,8626.51
1389941.5771,3251.27,13003.49,34096.39,33250.38,24604.42,28101.11,12843.56,8632.18
1389941.5791,2654.12,12902.79,34102.83,33262.07,24624.49,28067.26,12696.51,8651.64
1389941.5811,2449.51,12831.02,34110.03,33273.61,24638.85,28053.48,12593.22,8661.94
1389941.5831,2695.61,12817.19,34119.13,33277.09,24646.62,28067.64,12579.25,8665.28
1389941.5851,3155.85,12847.14,34113.41,33269.93,24631.65,28095.06,12647.58,8650.97
1389941.5871,3647.42,12910.61,34102.21,33264.31,24607.8,28130.25,12756.68,8631.99
1389941.5891,3972.34,12995.82,34098.2,33254.87,24597.36,28164.72,12877.61,8610.77
1389941.5911,3919.7,13034.73,34084.75,33236.56,24588.25,28161.15,12931.4,8593.13
1389941.5931,3473.66,13026.29,34074.26,33233.55,24586.16,28107.07,12881.81,8594.61
1389941.5951,2804.66,12931.25,34073.79,33244.9,24601.22,28066.88,12739.95,8616.5
1389941.5971,2443.31,12829.45,34077.46,33254.82,24610.28,28036.07,12598.95,8635.28
1389941.5991,2537.3,12791.11,34094.62,33268.6,24626.31,28038.7,12546.11,8652.88
1389941.6011,2979.23,12822.77,34107.4,33271.98,24631.84,28077.32,12604.29,8659.17
1389941.6031,3476.62,12881.95,34110.69,33259.73,24620.73,28115.04,12712.29,8654.88
1389941.6051,3904.01,12969.21,34105.11,33244.04,24598.17,28146.37,12841.89,8637.81
1389941.6071,3969.86,13027.57,34101.06,33239.03,24592.69,28163.34,12932.92,8628.94
1389941.6091,3669.17,13042.5,34094.05,33235.98,24586.82,28135.26,12925.53,8618.88
1389941.6111,2999.74,12958.81,34082.7,33229.88,24592.55,28079.27,12787.06,8623.08
1389941.6131,2528.24,12870.46,34100.01,33255.87,24626.21,28061.15,12648.58,8649.02
1389941.6151,2464.96,12814.0,34115.89,33281.62,24647.86,28065.73,12570.81,8665.99
1389941.6171,2847.43,12827.45,34128.38,33290.91,24650.62,28094.06,12597.23,8668.61
1389941.6191,3327.08,12876.94,34135.68,33287.24,24644.76,28133.44,12692.98,8664.51
1389941.6211,3818.85,12954.43,34127.91,33270.55,24624.11,28157.38,12818.05,8644.01
1389941.6231,3984.5,13008.12,34109.64,33245.33,24603.51,28169.21,12913.99,8624.13
1389941.6251,3834.53,13046.89,34100.01,33250.19,24600.32,28151.04,12941.03,8623.51
1389941.6271,3240.06,13007.21,34088.95,33252.86,24607.33,28105.55,12849.0,8631.75
1389941.6291,2661.66,12914.47,34093.15,33263.07,24628.36,28062.92,12702.99,8649.87
1389941.6311,2432.39,12835.41,34106.12,33277.66,24644.28,28050.28,12592.98,8665.94
1389941.6331,2701.43,12821.01,34111.36,33281.38,24642.42,28063.78,12574.77,8666.23
1389941.6351,3143.12,12848.33,34112.27,33274.23,24633.65,28088.53,12636.33,8653.55
1389941.6371,3666.4,12918.28,34109.64,33265.79,24615.48,28124.76,12753.15,8634.04
1389941.6391,3962.18,12991.24,34097.63,33250.62,24600.46,28157.09,12871.93,8618.07
1389941.6411,3940.73,13040.45,34089.24,33245.76,24594.17,28153.61,12933.45,8615.07
1389941.6431,3471.04,13029.39,34086.52,33247.62,24598.32,28104.36,12882.62,8623.98
1389941.6451,2830.31,12940.36,34091.0,33259.82,24615.34,28058.72,12740.57,8642.39
1389941.6471,2450.56,12849.52,34103.92,33284.86,24639.85,28039.03,12606.1,8668.71
1389941.6491,2572.11,12815.05,34116.89,33302.36,24652.1,28039.6,12552.17,8681.97
1389941.6511,2980.23,12835.22,34123.95,33295.73,24649.43,28067.26,12599.47,8679.06
1389941.6531,3501.84,12898.59,34130.72,33288.63,24640.94,28110.84,12710.14,8668.42
1389941.6551,3903.53,12980.22,34125.67,33273.65,24626.02,28142.88,12834.84,8650.64
1389941.6571,3992.03,13027.0,34114.03,33259.78,24611.67,28150.75,12914.9,8635.47
1389941.6591,3666.69,13034.73,34102.11,33250.86,24604.51,28120.0,12899.78,8628.08
1389941.6611,3034.97,12970.93,34105.64,33257.06,24618.72,28086.24,12781.86,8643.53
1389941.6631,2526.71,12868.69,34112.51,33268.26,24639.51,28067.07,12636.42,8662.13
1389941.6651,2477.17,12810.8,34125.57,33289.91,24655.3,28066.97,12554.5,8672.33
1389941.6671,2831.17,12819.96,34129.96,33295.68,24654.11,28055.39,12574.15,8669.19
1389941.6691,3316.78,12854.96,34126.48,33281.85,24636.65,28073.27,12655.88,8657.31
1389941.6711,3794.34,12935.45,34121.99,33267.65,24621.06,28112.61,12780.57,8642.15
1389941.6731,3996.8,12999.97,34113.13,33247.71,24610.62,28136.73,12884.67,8630.75
