TimeStamp,P3,P4,F3,F4,FP1,I1,I2,FP2
1389993.8288,3531.84,12344.89,33572.11,32550.05,24349.36,27698.14,12163.83,8587.65
1389993.8308,3398.37,12380.6,33567.15,32552.82,24346.45,27691.27,12198.21,8587.08
1389993.8328,2891.64,12371.83,33578.59,32583.38,24372.06,27675.3,12144.52,8614.97
1389993.8348,2283.48,12289.95,33593.13,32608.37,24404.91,27650.69,12017.2,8647.35
1389993.8368,1989.27,12171.84,33569.63,32586.91,24388.32,27598.43,11867.81,8632.04
1389993.8388,2178.96,12137.27,33562.0,32565.74,24375.11,27589.85,11826.9,8618.17
1389993.8408,2609.73,12154.44,33557.04,32548.96,24356.46,27605.68,11876.39,8594.66
1389993.8428,3129.39,12229.49,33559.85,32545.0,24345.26,27651.6,11996.41,8581.69
1389993.8448,3469.61,12302.88,33546.79,32526.45,24320.65,27677.21,12112.29,8555.13
1389993.8468,3472.28,12361.67,33547.12,32526.35,24316.84,27691.32,12193.73,8549.83
1389993.8488,3075.84,12371.64,33556.89,32545.71,24334.77,27669.0,12170.65,8570.39
1389993.8508,2429.68,12291.48,33552.75,32547.33,24343.4,27620.8,12033.89,8580.11
1389993.8528,2019.83,12197.07,33565.67,32566.69,24368.72,27597.96,11894.61,8607.82
1389993.8548,2088.07,12165.12,33587.65,32595.02,24388.84,27608.02,11837.34,8629.75
1389993.8568,2484.51,12179.57,33594.76,32605.89,24390.99,27642.78,11884.93,8629.08
1389993.8588,3008.03,12244.18,33599.33,32601.65,24380.11,27681.97,11995.7,8620.69
1389993.8609,3446.2,12334.63,33605.96,32593.44,24371.67,27724.65,12127.83,8613.49
1389993.8629,3581.48,12413.12,33616.17,32592.11,24381.69,27749.88,12228.3,8624.41
1389993.8649,3295.23,12409.59,33587.22,32569.98,24360.61,27712.78,12214.38,8604.77
1389993.8669,2648.26,12313.94,33538.82,32531.79,24332.34,27622.66,12071.56,8575.06
1389993.8689,2081.68,12196.49,33532.86,32535.27,24345.5,27575.4,11909.77,8585.17
1389993.8709,1991.08,12139.75,33552.75,32554.77,24366.14,27576.88,11824.66,8600.38
1389993.8729,2307.51,12138.37,33565.0,32559.88,24368.67,27612.55,11840.73,8591.7
1389993.8749,2801.61,12189.82,33567.62,32564.98,24356.32,27656.75,11932.42,8576.58
1389993.8769,3283.98,12268.26,33563.67,32558.49,24340.2,27687.03,12051.15,8569.38
1389993.8789,3532.74,12346.79,33558.99,32546.19,24326.47,27681.69,12160.25,8567.05
1389993.8809,3408.34,12384.85,33561.95,32543.71,24326.95,27679.49,12200.45,8568.76
1389993.8829,2896.26,12361.05,33559.09,32541.18,24334.86,27654.7,12135.17,8578.06
1389993.8849,2275.8,12273.36,33573.25,32560.92,24367.72,27626.76,12004.33,8611.92
1389993.8869,2030.42,12208.08,33601.1,32590.44,24400.19,27621.27,11899.9,8644.39
1389993.8889,2205.75,12181.9,33609.01,32597.59,24400.05,27631.29,11870.43,8647.63
1389993.8909,2645.87,12197.21,33594.9,32580.67,24373.87,27647.69,11920.36,8621.5
1389993.8929,3137.26,12253.81,33582.12,32559.83,24346.16,27675.16,12023.59,8580.45
1389993.8949,3500.61,12332.54,33567.19,32539.99,24323.56,27693.89,12144.66,8541.44
1389993.8969,3474.71,12372.54,33552.22,32527.02,24313.36,27699.0,12207.7,8539.2
1389993.8989,3099.92,12385.18,33553.8,32543.09,24323.32,27682.93,12182.28,8565.14
1389993.9009,2455.47,12316.47,33568.29,32569.32,24360.8,27649.02,12058.45,8609.11
1389993.9029,2046.49,12214.81,33570.72,32577.66,24375.3,27604.49,11905.72,8623.98
1389993.9049,2078.87,12163.55,33585.41,32582.95,24381.59,27601.91,11829.57,8634.28
1389993.9069,2504.3,12187.15,33602.15,32587.25,24381.88,27640.16,11882.21,8634.76
1389993.9089,2997.02,12243.08,33604.82,32580.76,24371.91,27682.02,11986.69,8623.74
1389993.9109,3438.76,12315.89,33587.51,32562.78,24346.02,27699.28,12104.42,8596.14
1389993.9129,3539.42,12368.39,33576.92,32550.77,24338.92,27715.92,12192.68,8586.07
1389993.9149,3303.43,12387.94,33567.15,32549.77,24337.01,27702.29,12199.31,8578.25
1389993.9169,2660.7,12324.24,33555.08,32548.53,24339.35,27650.98,12086.3,8578.78
1389993.9189,2137.42,12222.24,33559.52,32566.46,24360.18,27618.7,11939.48,8595.99
1389993.9209,2006.15,12150.67,33569.63,32576.85,24376.2,27600.86,11835.48,8608.63
1389993.9229,2333.78,12146.43,33577.16,32580.67,24373.44,27612.36,11840.73,8607.67
1389993.9249,2794.74,12189.1,33582.02,32575.04,24364.43,27640.3,11925.41,8597.57
1389993.9269,3306.44,12265.45,33581.07,32564.07,24343.73,27676.49,12042.19,8577.01
1389993.9289,3527.88,12332.11,33567.58,32536.94,24318.08,27692.61,12144.38,8552.03
1389993.9309,3416.01,12376.45,33564.24,32538.18,24315.03,27688.22,12188.82,8545.26
1389993.9329,2885.15,12361.72,33569.39,32559.92,24338.87,27669.0,12129.79,8559.61
1389993.9349,2271.6,12259.48,33563.19,32560.45,24356.51,27623.32,11977.34,8583.64
1389993.9369,1975.82,12164.17,33563.14,32557.01,24362.61,27593.57,11844.45,8596.85
1389993.9389,2178.62,12140.37,33572.39,32561.93,24366.43,27591.9,11813.69,8606.15
1389993.9409,2634.91,12185.81,33589.56,32575.18,24374.54,27626.33,11894.32,8615.83
1389993.9429,3163.77,12261.68,33593.61,32578.62,24367.19,27672.68,12018.83,8609.01
1389993.9449,3492.98,12327.67,33574.39,32555.87,24340.68,27694.9,12129.83,8582.31
1389993.9469,3498.89,12372.88,33571.06,32547.24,24335.53,27699.76,12193.49,8579.45
1389993.9489,3125.1,12397.58,33581.59,32564.21,24355.27,27686.41,12183.62,8601.33
1389993.9509,2476.17,12314.27,33578.78,32570.03,24366.76,27644.69,12052.11,8614.92
1389993.9529,2031.47,12197.54,33567.38,32559.35,24363.04,27600.43,11897.8,8608.25
1389993.9549,2079.63,12160.35,33592.51,32582.33,24383.5,27598.58,11836.05,8625.13
1389993.9572,2495.1,12192.78,33613.88,32596.45,24390.18,27625.42,11883.31,8634.71
1389993.9592,2984.91,12238.69,33612.16,32584.48,24375.54,27664.0,11978.77,8619.74
1389993.9612,3414.2,12302.54,33585.27,32549.72,24337.72,27683.4,12083.58,8585.5
1389993.9632,3518.06,12348.22,33562.57,32526.4,24314.17,27690.8,12165.5,8562.14
1389993.9652,3269.72,12371.73,33546.88,32525.26,24311.64,27665.43,12174.08,8553.94
1389993.9672,2622.94,12297.92,33524.52,32519.49,24314.07,27613.55,12051.87,8551.22
1389993.9692,2100.18,12204.6,33529.91,32535.08,24335.96,27567.44,11910.92,8569.05
1389993.9712,1983.5,12152.15,33568.43,32570.75,24377.11,27566.1,11832.29,8603.76
1389993.9732,2314.28,12159.25,33581.83,32571.84,24380.59,27597.0,11847.31,8607.29
1389993.9752,2773.19,12194.3,33578.45,32558.16,24362.76,27638.01,11932.8,8594.23
1389993.9772,3280.64,12271.5,33568.05,32544.62,24339.54,27674.11,12049.2,8561.37
1389993.9792,3508.28,12343.88,33565.57,32542.23,24332.29,27718.36,12161.73,8541.82
1389993.9812,3441.05,12408.88,33580.93,32567.22,24346.35,27745.58,12230.25,8558.23
1389993.9832,2909.42,12384.46,33584.07,32579.09,24359.23,27703.48,12156.68,8585.88
1389993.9852,2285.43,12270.36,33562.47,32561.12,24351.89,27605.16,11991.65,8599.23
1389993.9872,1979.16,12177.85,33574.3,32569.13,24375.39,27584.17,11867.1,8625.22
1389993.9889,2204.66,12168.69,33598.52,32585.82,24390.51,27610.02,11849.83,8640.81
1389993.9909,2619.65,12183.48,33596.09,32566.46,24373.77,27638.82,11900.33,8622.93
1389993.9929,3144.46,12245.56,33580.02,32540.13,24342.59,27665.09,12008.62,8592.61
1389993.9949,3470.47,12316.37,33566.86,32526.45,24326.47,27675.49,12121.82,8576.54
1389993.9969,3497.36,12362.29,33550.41,32519.39,24312.55,27675.92,12188.2,8564.14
1389993.9989,3075.08,12344.98,33526.09,32507.9,24302.68,27636.2,12139.08,8558.27
1389994.0009,2452.28,12280.85,33534.15,32529.17,24329.81,27610.45,12020.83,8584.12
1389994.0029,2022.74,12195.68,33556.56,32561.5,24360.04,27605.73,11903.43,8604.1
1389994.0049,2088.93,12161.4,33578.64,32589.68,24375.44,27597.62,11843.64,8605.53
1389994.0069,2455.62,12170.27,33580.97,32595.78,24369.72,27614.41,11873.29,8590.89
1389994.0089,2988.48,12241.32,33595.38,32604.89,24369.86,27670.29,11992.36,8584.69
1389994.0109,3414.2,12315.56,33585.55,32574.75,24346.55,27696.47,12109.04,8568.86
1389994.0129,3540.56,12365.1,33563.09,32533.22,24318.89,27700.14,12188.1,8553.98
1389994.0149,3266.95,12377.69,33548.5,32502.66,24310.88,27677.83,12186.34,8555.37
1389994.0169,2671.05,12321.04,33541.83,32502.85,24316.89,27626.42,12076.05,8567.57
1389994.0189,2117.3,12220.05,33545.16,32518.06,24340.2,27594.19,11928.8,8592.03
1389994.0209,2021.31,12170.03,33566.29,32552.91,24370.01,27603.68,11853.93,8619.45
1389994.0229,2321.39,12165.83,33570.48,32559.4,24371.05,27625.04,11861.95,8618.5
1389994.0249,2801.13,12200.98,33563.71,32554.87,24358.42,27657.04,11942.82,8593.75
1389994.0269,3295.95,12285.81,33571.1,32560.73,24351.74,27683.55,12065.84,8571.29
1389994.0289,3547.0,12351.9,33568.82,32548.05,24336.63,27705.58,12174.08,8560.18
1389994.0309,3427.89,12388.8,33561.28,32535.89,24328.57,27702.67,12218.38,8563.0
1389994.0329,2905.85,12356.33,33550.22,32526.54,24329.14,27660.33,12146.67,8568.1
1389994.0349,2267.79,12251.81,33546.12,32525.16,24341.73,27610.45,11990.45,8581.73
1389994.0369,1997.14,12177.9,33569.86,32555.3,24369.2,27600.58,11878.83,8612.54
1389994.0389,2188.73,12163.45,33583.55,32569.84,24375.82,27614.45,11853.98,8619.21
1389994.0409,2629.42,12186.0,33583.41,32575.18,24369.15,27645.54,11915.78,8603.19
1389994.0429,3140.64,12255.38,33583.45,32571.37,24356.61,27685.12,12031.94,8588.03
1389994.0449,3492.88,12327.96,33570.77,32553.96,24332.34,27718.12,12141.8,8555.84
1389994.0469,3508.04,12374.45,33565.1,32554.11,24318.6,27722.65,12192.3,8526.42
1389994.0489,3114.41,12370.97,33562.19,32547.95,24317.94,27686.55,12157.2,8539.15
1389994.0509,2468.16,12294.2,33560.47,32557.4,24337.15,27612.98,12025.5,8576.2
1389994.0529,2045.25,12207.22,33577.97,32585.82,24369.67,27595.09,11890.98,8619.74
1389994.0549,2101.52,12176.9,33596.57,32593.64,24390.22,27603.87,11842.63,8645.01
1389994.0569,2476.88,12183.48,33603.82,32577.95,24385.03,27631.48,11877.06,8633.95
1389994.0589,2991.82,12246.18,33610.73,32562.5,24364.95,27679.64,11988.07,8613.64
1389994.0609,3418.49,12316.85,33590.75,32529.64,24321.75,27713.25,12103.51,8571.01
1389994.0629,3539.04,12360.1,33557.8,32503.27,24289.66,27727.75,12181.66,8534.81
1389994.0649,3288.41,12374.93,33551.36,32508.38,24303.58,27694.66,12192.11,8547.12
1389994.0669,2690.27,12325.19,33546.83,32521.35,24337.91,27637.58,12085.39,8579.3
1389994.0689,2137.18,12228.3,33561.09,32553.01,24383.83,27597.0,11940.05,8620.93
1389994.0709,2032.23,12176.9,33585.03,32588.96,24416.64,27578.98,11855.13,8649.78
1389994.0729,2328.49,12169.08,33597.28,32588.53,24417.12,27591.95,11851.17,8644.72
1389994.0749,2809.1,12206.32,33593.71,32571.42,24399.95,27626.18,11924.55,8624.6
1389994.0769,3274.63,12268.97,33581.69,32554.49,24374.68,27651.6,12033.46,8586.55
1389994.0789,3536.94,12342.79,33577.4,32553.96,24360.23,27673.96,12142.33,8558.32
1389994.0809,3422.79,12378.79,33577.49,32560.21,24368.34,27676.87,12190.63,8570.1
1389994.0829,2919.01,12356.52,33575.63,32559.68,24370.39,27642.11,12127.54,8586.55
1389994.0849,2285.96,12267.02,33594.09,32574.94,24389.37,27611.97,11990.31,8616.16
1389994.0869,2030.95,12199.26,33624.56,32603.32,24418.12,27611.5,11888.31,8652.59
1389994.0889,2214.43,12183.48,33648.3,32618.1,24435.9,27627.85,11869.58,8679.01
1389994.0909,2662.37,12212.95,33646.83,32618.62,24436.81,27654.75,11927.99,8683.16
1389994.0929,3158.52,12276.56,33642.06,32613.76,24436.29,27693.56,12036.71,8669.81
1389994.0949,3535.08,12357.86,33629.37,32604.89,24428.08,27716.31,12156.39,8652.12
1389994.0969,3525.93,12394.95,33605.48,32586.77,24411.97,27713.68,12218.43,8627.56
1389994.0989,3157.19,12400.06,33594.28,32586.34,24403.1,27685.12,12188.72,8617.16
1389994.1009,2479.32,12305.45,33580.02,32584.72,24402.43,27631.52,12049.82,8622.6
1389994.1029,2060.84,12206.75,33589.27,32605.7,24431.04,27599.48,11906.2,8651.07
1389994.1049,2076.67,12157.68,33606.72,32623.01,24458.22,27600.91,11833.96,8677.25
1389994.1069,2499.87,12190.01,33630.8,32643.99,24474.19,27638.39,11883.4,8700.04
1389994.1089,3003.65,12258.25,33647.35,32642.8,24480.16,27686.12,11993.79,8698.32
1389994.1109,3466.08,12345.46,33643.87,32620.58,24461.27,27722.22,12123.97,8675.53
1389994.1129,3553.1,12377.41,33607.3,32578.0,24418.36,27713.11,12191.11,8644.49
1389994.1149,3332.66,12401.77,33597.47,32567.22,24412.35,27695.23,12200.93,8644.15
1389994.1169,2720.26,12362.15,33604.44,32589.87,24441.25,27668.53,12108.95,8665.99
1389994.1189,2196.26,12274.22,33616.79,32625.92,24466.47,27640.92,11966.33,8693.93
1389994.1209,2041.05,12198.02,33623.89,32635.26,24471.43,27612.69,11860.99,8700.85
1389994.1229,2355.05,12188.63,33631.66,32627.16,24461.32,27620.08,11861.71,8685.26
1389994.1249,2805.28,12224.82,33629.33,32622.15,24444.49,27644.54,11941.24,8656.69
1389994.1269,3313.59,12300.87,33624.46,32613.14,24424.79,27683.02,12063.6,8631.52
1389994.1289,3541.14,12363.2,33605.77,32588.39,24400.57,27699.04,12166.79,8618.88
1389994.1309,3446.15,12403.82,33595.76,32589.49,24392.51,27699.09,12214.57,8622.22
1389994.1329,2940.7,12402.87,33613.83,32604.27,24417.36,27690.13,12173.08,8657.12
1389994.1349,2350.9,12327.82,33636.76,32628.25,24456.46,27666.0,12044.05,8701.75
1389994.1369,2024.32,12214.14,33613.97,32602.36,24449.3,27613.21,11891.75,8692.22
1389994.1389,2199.22,12182.86,33615.78,32602.65,24453.07,27610.59,11844.06,8687.5
1389994.1409,2638.44,12218.19,33626.75,32605.37,24455.03,27653.41,11916.73,8686.11
1389994.1429,3148.46,12280.66,33620.79,32594.02,24433.33,27692.7,12032.46,8661.94
1389994.1449,3507.33,12364.77,33616.4,32588.82,24418.02,27720.5,12157.11,8648.49
1389994.1469,3529.12,12415.08,33614.73,32593.4,24415.4,27728.99,12232.02,8648.44
1389994.1489,3154.04,12415.12,33599.57,32589.25,24406.01,27695.33,12205.36,8642.34
1389994.1509,2508.16,12330.2,33597.76,32597.12,24419.84,27644.21,12060.26,8656.74
1389994.1529,2075.96,12231.49,33606.49,32611.56,24438.43,27610.5,11910.25,8670.86
1389994.1549,2103.62,12193.92,33627.66,32631.35,24457.55,27626.09,11860.04,8687.35
1389994.1569,2499.15,12213.28,33637.81,32631.97,24453.4,27658.23,11903.95,8681.68
1389994.1589,3001.4,12274.22,33652.26,32633.98,24447.06,27705.58,12015.96,8672.19
1389994.1609,3450.01,12352.28,33636.38,32617.95,24420.6,27727.56,12130.4,8637.81
1389994.1629,3548.05,12379.79,33597.19,32578.52,24384.69,27705.58,12186.48,8603.76
1389994.1649,3329.52,12412.36,33588.94,32581.48,24377.97,27675.68,12198.45,8609.3
1389994.1669,2711.15,12359.33,33587.17,32590.97,24388.03,27638.2,12096.6,8626.75
1389994.1689,2171.76,12255.72,33585.65,32594.16,24397.42,27600.2,11950.3,8636.95
1389994.1709,2019.45,12185.38,33598.9,32608.42,24411.82,27596.05,11853.7,8648.78
1389994.1729,2341.89,12195.02,33611.3,32612.38,24420.65,27625.99,11867.57,8653.55
1389994.1749,2803.99,12243.42,33621.84,32610.32,24428.28,27676.25,11959.79,8657.93
1389994.1769,3322.08,12330.1,33616.79,32607.46,24415.31,27706.58,12092.83,8648.63
1389994.1789,3557.54,12392.0,33606.01,32592.73,24397.52,27721.6,12195.54,8630.32
1389994.1809,3476.67,12435.1,33602.15,32588.87,24394.37,27717.55,12243.61,8621.17
1389994.1829,2951.77,12407.11,33601.24,32590.92,24402.43,27687.03,12174.08,8627.46
1389994.1849,2352.43,12317.85,33602.48,32596.26,24423.03,27644.21,12031.18,8647.3
1389994.1869,2051.74,12248.14,33632.09,32629.78,24460.75,27642.78,11929.94,8687.07
1389994.1889,2253.87,12235.93,33646.06,32650.71,24466.52,27663.04,11915.73,8694.36
1389994.1909,2660.66,12245.32,33641.01,32639.08,24450.69,27687.84,11966.52,8679.25
1389994.1929,3207.16,12319.71,33650.64,32635.84,24444.39,27730.42,12084.63,8674.29
1389994.1949,3530.69,12374.64,33623.75,32603.84,24404.24,27746.25,12184.29,8639.58
1389994.1969,3559.16,12410.31,33598.05,32582.76,24376.54,27742.06,12237.03,8618.17
1389994.1989,3151.7,12400.29,33581.74,32575.33,24366.52,27696.33,12193.63,8611.3
1389994.2009,2519.08,12321.04,33578.92,32581.43,24378.92,27633.86,12057.97,8622.36
1389994.2029,2063.66,12227.58,33596.95,32603.7,24410.82,27606.44,11926.75,8646.68
1389994.2049,2120.69,12197.4,33621.98,32628.78,24431.95,27628.81,11879.16,8657.03
1389994.2069,2496.43,12219.95,33637.91,32643.56,24440.34,27671.1,11922.07,8656.22
1389994.2089,3016.28,12276.94,33642.92,32644.18,24426.94,27704.72,12017.39,8638.24
1389994.2109,3444.67,12351.8,33631.52,32623.49,24403.62,27732.52,12140.47,8617.93
1389994.2129,3588.15,12404.59,33610.63,32595.11,24381.45,27737.43,12229.11,8610.39
1389994.2149,3319.69,12404.87,33580.93,32563.83,24364.57,27701.48,12219.81,8602.1
1389994.2169,2725.08,12352.23,33574.73,32555.54,24375.11,27657.61,12109.38,8609.11
1389994.2189,2170.28,12265.16,33590.37,32577.23,24408.06,27634.86,11977.91,8630.8
1389994.2209,2048.54,12206.75,33607.01,32605.13,24431.14,27608.4,11884.64,8655.12
1389994.2229,2349.04,12216.62,33626.75,32625.82,24442.48,27642.25,11901.81,8675.72
1389994.2249,2831.13,12255.43,33627.51,32619.38,24429.04,27680.59,11974.34,8667.18
1389994.2269,3312.21,12324.1,33620.27,32598.21,24406.25,27702.24,12085.63,8646.3
1389994.2289,3576.85,12395.29,33618.12,32589.44,24396.23,27724.79,12196.92,8637.62
1389994.2309,3480.15,12433.82,33611.11,32597.16,24394.32,27727.65,12237.17,8632.23
1389994.2329,2975.32,12404.87,33596.57,32597.02,24390.56,27692.85,12174.42,8629.9
1389994.2349,2363.3,12330.34,33617.31,32619.29,24422.89,27666.86,12048.68,8659.08
1389994.2369,2061.13,12238.55,33624.94,32634.45,24440.1,27638.1,11920.55,8670.71
1389994.2389,2203.37,12187.77,33607.15,32616.43,24420.98,27622.75,11861.23,8652.45
1389994.2409,2631.81,12210.61,33612.3,32610.23,24420.41,27657.89,11918.02,8649.49
1389994.2429,3174.78,12303.5,33636.96,32621.77,24428.04,27718.21,12054.78,8655.93
1389994.2449,3547.81,12390.57,33638.82,32614.76,24417.02,27739.15,12180.0,8645.68
1389994.2469,3575.13,12443.07,33630.99,32605.08,24408.25,27738.96,12248.52,8635.52
1389994.2489,3185.46,12431.1,33614.97,32594.26,24398.62,27704.67,12213.14,8627.08
1389994.2509,2522.18,12329.63,33589.41,32575.28,24392.37,27635.39,12069.13,8623.27
1389994.2529,2070.71,12226.01,33597.04,32588.15,24411.97,27605.58,11927.42,8646.63
1389994.2549,2115.39,12201.02,33620.08,32628.59,24436.72,27621.94,11880.21,8672.24
1389994.2569,2501.58,12224.25,33643.44,32654.05,24448.16,27667.19,11924.51,8684.25
1389994.2589,3012.23,12285.23,33650.07,32648.38,24439.53,27713.49,12028.93,8674.15
1389994.2609,3452.4,12360.1,33645.87,32628.49,24423.08,27754.5,12150.81,8648.54
1389994.2629,3604.84,12421.99,33631.04,32610.56,24405.91,27761.84,12245.42,8626.18
1389994.2649,3356.41,12436.53,33611.73,32599.26,24391.42,27729.32,12250.57,8615.59
1389994.2669,2774.33,12397.82,33612.64,32613.76,24408.25,27694.13,12158.54,8639.0
1389994.2689,2210.09,12299.11,33622.98,32630.69,24431.37,27653.22,12004.81,8663.37
1389994.2709,2066.66,12219.19,33623.84,32625.73,24429.61,27617.93,11891.84,8650.92
1389994.2729,2338.93,12199.4,33624.84,32609.9,24419.6,27625.8,11883.88,8639.29
1389994.2749,2819.73,12241.75,33630.33,32606.13,24414.73,27661.61,11963.23,8632.99
1389994.2769,3327.18,12335.92,33645.54,32617.81,24425.94,27719.17,12100.75,8652.59
1389994.2789,3589.92,12400.34,33623.27,32587.44,24400.43,27734.47,12201.69,8638.14
1389994.2809,3465.32,12421.51,33605.53,32570.99,24387.17,27719.41,12231.21,8630.37
1389994.2829,2976.85,12406.21,33602.15,32578.85,24393.28,27675.16,12165.98,8637.57
1389994.2849,2334.6,12314.85,33604.72,32593.3,24416.64,27636.48,12020.02,8659.6
1389994.2869,2048.44,12237.36,33617.17,32620.2,24438.1,27631.72,11906.29,8676.67
1389994.2889,2213.05,12211.99,33628.42,32637.41,24446.78,27652.7,11874.96,8679.58
1389994.2909,2681.92,12249.47,33647.92,32653.76,24451.88,27693.47,11953.93,8679.68
1389994.2929,3198.77,12329.01,33665.28,32658.87,24454.22,27741.58,12082.15,8684.83
1389994.2949,3575.04,12401.58,33641.49,32628.44,24422.84,27744.77,12192.92,8654.4
1389994.2969,3571.94,12436.2,33623.89,32601.74,24404.96,27736.43,12250.14,8636.43
1389994.2989,3213.45,12438.01,33613.4,32590.25,24402.53,27706.91,12222.39,8637.33
1389994.3009,2535.06,12344.98,33602.62,32583.96,24409.73,27650.07,12078.72,8645.01
1389994.3029,2108.15,12252.24,33616.36,32606.27,24431.9,27625.09,11940.15,8664.99
1389994.3049,2116.97,12216.38,33644.16,32640.84,24455.26,27635.86,11880.69,8688.02
1389994.3069,2508.69,12219.72,33645.2,32635.5,24439.0,27647.31,11901.9,8672.52
1389994.3089,2983.28,12257.48,33634.29,32614.52,24414.97,27671.48,11980.82,8648.83
1389994.3109,3466.42,12352.99,33638.53,32613.71,24409.73,27716.45,12116.24,8640.34
1389994.3129,3592.49,12416.94,33634.33,32598.45,24400.9,27746.35,12218.05,8629.23
1389994.3149,3392.94,12448.84,33628.85,32601.5,24395.85,27740.0,12239.93,8626.61
1389994.3169,2781.3,12403.68,33627.56,32613.38,24409.96,27698.66,12149.43,8646.2
1389994.3189,2232.41,12302.78,33631.95,32628.87,24433.95,27651.69,12000.37,8670.43
1389994.3209,2048.16,12211.66,33625.56,32629.3,24440.72,27614.5,11880.83,8670.95
1389994.3229,2352.05,12206.75,33639.67,32634.21,24446.06,27629.04,11883.64,8673.05
1389994.3249,2813.15,12246.85,33646.97,32629.3,24440.82,27660.04,11957.93,8668.76
1389994.3269,3333.86,12339.55,33657.46,32637.22,24442.1,27712.78,12095.12,8666.09
1389994.3289,3589.58,12415.98,33644.87,32621.24,24429.47,27745.63,12215.09,8653.36
1389994.3309,3496.84,12438.68,33610.2,32593.3,24394.13,27729.8,12245.61,8625.17
1389994.3329,2983.71,12413.74,33599.05,32590.82,24390.75,27699.33,12176.99,8626.75
1389994.3349,2352.67,12310.27,33602.86,32602.89,24417.78,27651.93,12025.26,8649.64
1389994.3369,2046.06,12231.64,33626.99,32635.74,24449.59,27640.78,11912.87,8673.1
1389994.3389,2238.32,12222.91,33655.36,32671.93,24468.47,27644.45,11900.38,8690.64
1389994.3409,2649.21,12228.87,33640.44,32645.42,24439.19,27651.22,11943.06,8660.79
1389994.3429,3158.57,12287.0,33633.28,32626.68,24421.6,27688.94,12049.01,8648.83
1389994.3449,3533.08,12370.02,33623.03,32608.42,24403.91,27721.84,12174.27,8640.67
1389994.3469,3568.65,12432.39,33623.75,32607.85,24404.67,27757.65,12260.3,8647.11
1389994.3489,3219.94,12449.5,33627.13,32614.28,24418.79,27733.28,12236.17,8662.99
1389994.3509,2551.65,12354.42,33613.21,32608.42,24425.8,27653.32,12085.11,8668.47
1389994.3529,2103.47,12263.35,33621.84,32628.4,24445.35,27620.89,11942.58,8684.78
1389994.3549,2108.38,12214.38,33637.81,32648.71,24459.65,27614.5,11873.77,8689.07
1389994.3569,2501.15,12227.82,33645.06,32648.71,24452.5,27644.07,11916.88,8683.63
1389994.3589,2978.75,12270.74,33639.44,32637.27,24429.04,27673.39,12007.48,8668.71
1389994.3609,3448.15,12364.72,33643.01,32632.02,24422.12,27714.97,12141.52,8659.65
1389994.3629,3587.72,12415.7,33629.37,32617.0,24408.01,27733.62,12226.06,8638.57
1389994.3649,3374.24,12432.62,33609.49,32607.32,24394.42,27710.25,12229.01,8626.27
1389994.3669,2755.36,12377.22,33604.39,32605.18,24407.91,27677.97,12128.16,8640.05
1389994.3689,2211.24,12286.86,33612.4,32614.47,24431.52,27649.22,11982.39,8666.95
1389994.3709,2054.17,12226.01,33638.86,32639.17,24460.7,27638.15,11884.98,8700.51
1389994.3729,2366.64,12229.92,33652.4,32650.19,24465.13,27642.68,11888.74,8705.09
1389994.3749,2811.77,12264.59,33655.12,32646.09,24454.55,27672.68,11963.75,8692.36
1389994.3769,3328.04,12340.69,33645.06,32634.17,24428.37,27692.75,12081.29,8663.94
1389994.3789,3571.56,12401.92,33635.29,32617.29,24410.82,27711.68,12187.77,8643.63
1389994.3809,3511.57,12449.55,33631.52,32613.23,24400.76,27721.79,12241.65,8640.43
1389994.3829,3000.93,12429.52,33629.99,32607.27,24415.35,27698.42,12189.68,8660.51
1389994.3849,2374.27,12320.14,33609.06,32592.3,24412.35,27642.54,12040.57,8653.64
1389994.3869,2027.13,12209.99,33604.53,32605.08,24417.07,27604.3,11896.18,8640.48
1389994.3889,2218.15,12198.31,33625.85,32634.79,24437.53,27624.56,11869.34,8653.36
1389994.3909,2641.15,12233.93,33643.87,32645.85,24447.63,27666.33,11937.72,8666.56
1389994.3929,3183.03,12312.37,33651.21,32650.52,24440.67,27714.07,12063.22,8663.23
1389994.3949,3534.41,12392.71,33648.4,32640.94,24428.51,27743.96,12188.48,8662.42
1389994.3969,3584.43,12440.64,33634.43,32629.83,24412.97,27743.82,12256.39,8657.84
1389994.3989,3211.26,12445.88,33625.8,32620.53,24414.4,27715.64,12230.06,8664.04
1389994.4009,2592.42,12381.79,33625.37,32618.96,24433.19,27673.82,12108.28,8685.88
1389994.4029,2107.57,12267.26,33623.03,32616.14,24443.39,27634.58,11952.93,8700.28
1389994.4049,2129.03,12214.9,33633.05,32627.16,24454.5,27630.43,11882.35,8705.14
1389994.4069,2504.16,12232.83,33652.93,32639.41,24466.42,27666.52,11925.17,8711.53
1389994.4089,3024.01,12293.15,33665.09,32640.37,24462.8,27708.92,12031.13,8701.04
1389994.4109,3456.88,12364.91,33649.69,32619.67,24433.66,27734.95,12147.0,8671.24
1389994.4129,3619.53,12423.47,33630.18,32602.84,24411.25,27753.55,12242.46,8650.73
1389994.4149,3404.28,12462.62,33630.57,32612.04,24417.83,27756.65,12272.55,8659.79
1389994.4169,2829.17,12425.57,33637.91,32631.35,24438.05,27723.36,12179.04,8677.29
1389994.4189,2249.05,12321.19,33643.58,32640.89,24458.22,27680.45,12029.46,8695.79
1389994.4209,2091.93,12247.28,33652.31,32655.62,24469.33,27662.81,11925.27,8708.57
1389994.4229,2364.78,12242.89,33662.8,32666.26,24472.91,27678.16,11928.23,8708.57
1389994.4249,2851.77,12290.43,33678.49,32676.8,24476.96,27722.46,12014.91,8710.62
1389994.4269,3354.98,12374.31,33681.16,32667.83,24467.19,27764.51,12145.33,8697.8
1389994.4289,3627.11,12438.2,33662.51,32639.7,24444.68,27773.43,12247.04,8674.91
1389994.4309,3501.37,12440.06,33619.07,32589.96,24400.43,27727.56,12251.43,8632.37
1389994.4329,3000.74,12411.5,33606.63,32583.1,24391.56,27684.31,12177.09,8630.32
1389994.4349,2381.37,12334.54,33625.18,32606.41,24422.36,27658.66,12045.77,8661.18
1389994.437,2063.18,12250.19,33644.01,32634.41,24448.73,27644.35,11925.6,8690.64
1389994.439,2238.08,12241.56,33672.91,32664.21,24473.38,27664.0,11904.91,8717.49
1389994.441,2668.52,12265.11,33680.63,32665.54,24473.72,27687.74,11963.42,8716.58
1389994.443,3183.65,12328.67,33671.29,32654.34,24455.03,27724.94,12070.32,8699.32
1389994.445,3535.65,12388.33,33639.29,32620.96,24420.41,27732.61,12172.75,8661.13
1389994.447,3570.46,12424.76,33605.91,32593.64,24387.41,27724.32,12228.35,8629.18
1389994.449,3212.45,12427.14,33598.81,32597.35,24387.89,27700.0,12204.79,8626.46
1389994.451,2577.21,12361.19,33600.29,32609.8,24409.58,27665.76,12093.59,8643.96
1389994.453,2111.1,12259.91,33609.82,32623.68,24433.04,27644.69,11947.78,8667.37
1389994.455,2118.92,12206.41,33619.12,32630.92,24440.91,27635.96,11869.15,8668.57
1389994.457,2492.24,12219.38,33636.43,32647.85,24448.35,27666.76,11901.62,8669.23
1389994.459,3008.41,12279.23,33647.21,32647.57,24443.2,27701.86,12007.86,8669.66
1389994.461,3460.88,12356.85,33644.87,32630.26,24428.56,27731.14,12131.26,8662.51
1389994.463,3637.65,12434.25,33647.35,32619.81,24429.56,27756.27,12242.75,8667.61
1389994.465,3388.83,12434.34,33618.88,32591.49,24406.25,27715.16,12231.16,8641.29
1389994.467,2805.95,12388.33,33615.78,32590.77,24408.39,27670.34,12128.55,8643.39
1389994.469,2229.64,12291.43,33625.03,32607.89,24431.42,27641.87,11981.87,8668.9
1389994.471,2084.4,12231.35,33636.29,32623.72,24451.31,27640.63,11888.41,8690.41
1389994.473,2350.14,12218.52,33643.92,32629.06,24453.02,27653.65,11880.49,8689.83
1389994.475,2842.71,12268.97,33658.89,32640.7,24458.94,27687.84,11967.23,8678.68
1389994.477,3334.0,12344.17,33662.56,32640.22,24447.06,27718.64,12097.17,8668.57
1389994.479,3615.09,12419.85,33648.16,32627.4,24426.7,27740.67,12214.57,8662.89
1389994.481,3502.37,12434.77,33613.97,32603.65,24392.37,27714.4,12229.78,8645.34
1389994.483,3020.48,12412.36,33597.9,32598.4,24385.98,27674.73,12163.21,8640.0
1389994.485,2369.21,12322.24,33602.19,32604.17,24407.58,27637.77,12026.45,8656.74
1389994.487,2063.23,12244.13,33621.12,32627.54,24435.95,27628.43,11910.49,8673.96
1389994.489,2208.42,12221.96,33642.39,32649.71,24457.84,27652.03,11879.83,8687.07
1389994.491,2662.56,12253.05,33656.7,32657.44,24463.7,27676.3,11948.4,8690.6
1389994.493,3151.56,12306.02,33655.5,32640.51,24444.68,27681.54,12044.48,8678.29
1389994.495,3556.63,12395.57,33649.83,32637.55,24426.99,27722.55,12168.22,8665.23
1389994.497,3588.92,12451.55,33640.87,32632.07,24414.4,27743.53,12251.71,8656.12
1389994.499,3241.3,12448.41,33623.32,32618.62,24396.18,27712.97,12220.43,8638.91
1389994.501,2579.12,12368.25,33624.94,32618.0,24412.59,27670.2,12094.98,8654.5
1389994.503,2141.62,12275.84,33641.44,32636.88,24449.88,27648.12,11960.79,8687.07
1389994.505,2101.85,12205.75,33635.67,32637.89,24452.16,27630.57,11873.29,8682.73
1389994.507,2486.8,12216.52,33644.68,32640.89,24455.03,27651.27,11905.39,8674.05
1389994.509,2971.51,12264.44,33646.3,32626.06,24444.15,27677.54,11993.17,8663.7
1389994.511,3448.53,12347.41,33636.38,32612.04,24425.08,27704.62,12118.67,8656.17
1389994.513,3586.2,12409.5,33629.47,32599.93,24415.31,27723.51,12216.04,8657.6
1389994.515,3395.08,12435.39,33624.84,32599.45,24411.25,27706.96,12232.16,8659.13
1389994.517,2781.01,12383.18,33613.21,32595.21,24410.16,27655.65,12130.93,8662.18
1389994.519,2222.35,12282.04,33611.21,32605.84,24424.6,27614.36,11977.96,8677.05
1389994.521,2054.26,12228.16,33641.91,32639.51,24456.41,27626.47,11893.04,8706.95
1389994.523,2368.55,12241.98,33673.29,32668.4,24477.29,27665.57,11908.82,8722.5
1389994.525,2806.33,12253.91,33652.07,32641.03,24449.35,27676.16,11962.46,8686.35
1389994.527,3305.39,12308.65,33635.14,32618.57,24419.12,27701.33,12076.33,8657.08
1389994.529,3567.6,12375.31,33624.84,32608.99,24400.05,27730.09,12192.97,8642.48
1389994.531,3510.81,12423.47,33620.89,32618.81,24398.19,27728.75,12250.52,8630.9
1389994.533,3030.3,12415.46,33621.84,32633.5,24409.87,27687.41,12194.06,8638.81
1389994.535,2403.69,12329.15,33626.94,32645.13,24429.56,27650.74,12054.02,8670.38
1389994.537,2068.23,12240.6,33632.04,32655.58,24445.58,27627.04,11925.94,8690.74
1389994.539,2222.97,12218.05,33653.55,32673.89,24463.08,27635.05,11885.6,8711.96
1389994.541,2662.95,12254.19,33671.76,32677.85,24475.86,27669.58,11948.68,8727.27
1389994.543,3176.88,12310.22,33666.33,32658.87,24459.41,27703.24,12051.35,8711.91
1389994.545,3542.47,12378.69,33639.39,32625.82,24424.89,27715.54,12161.16,8673.96
1389994.547,3573.94,12422.28,33625.89,32610.52,24410.11,27722.55,12233.45,8654.79
1389994.549,3226.47,12431.05,33621.36,32605.22,24410.87,27700.62,12213.61,8656.65
1389994.551,2580.45,12357.9,33630.18,32610.71,24432.23,27660.42,12091.02,8679.2
1389994.553,2134.94,12273.17,33645.3,32627.87,24456.93,27639.3,11962.32,8704.0
1389994.555,2111.63,12219.76,33649.88,32641.8,24465.13,27636.25,11880.97,8709.34
1389994.557,2490.23,12233.02,33661.04,32650.9,24465.33,27655.99,11904.34,8710.1
1389994.559,2977.56,12282.47,33668.52,32648.61,24454.79,27695.18,11995.6,8702.04
1389994.561,3437.42,12352.66,33641.25,32619.0,24413.45,27713.92,12111.81,8648.83
1389994.563,3578.0,12407.5,33623.13,32605.94,24398.14,27724.22,12201.6,8617.88
1389994.565,3393.7,12446.12,33618.07,32615.81,24399.62,27710.58,12221.53,8637.33
1389994.567,2789.45,12399.01,33615.12,32625.97,24411.16,27677.21,12127.69,8667.23
1389994.569,2250.43,12318.04,33635.91,32656.67,24445.35,27659.37,11997.27,8704.33
1389994.571,2071.43,12252.81,33661.42,32679.75,24479.15,27637.53,11899.52,8736.37
1389994.573,2364.68,12243.94,33663.37,32679.04,24475.15,27639.68,11893.27,8729.03
1389994.575,2797.99,12260.34,33654.12,32663.64,24448.25,27665.19,11955.55,8703.09
1389994.577,3315.97,12330.49,33645.54,32650.05,24419.93,27697.76,12073.9,8681.49
1389994.579,3561.45,12386.94,33626.75,32619.86,24397.38,27709.77,12176.09,8656.93
1389994.581,3508.23,12432.39,33614.59,32599.98,24390.84,27719.83,12236.55,8642.34
1389994.583,3005.22,12414.03,33613.54,32597.02,24402.91,27690.56,12182.28,8639.15
1389994.585,2398.78,12333.3,33619.12,32609.18,24424.75,27656.7,12044.53,8649.06
1389994.587,2053.98,12244.61,33630.28,32634.88,24447.3,27639.96,11918.26,8667.85
1389994.589,2224.02,12231.97,33644.97,32655.62,24460.08,27644.92,11884.36,8690.69
1389994.591,2638.53,12260.82,33662.13,32658.96,24467.38,27681.21,11948.87,8709.96
1389994.593,3163.48,12316.61,33650.78,32639.22,24443.53,27699.47,12050.44,8692.74
1389994.595,3517.49,12386.47,33630.04,32618.81,24410.63,27718.26,12160.49,8662.84
1389994.597,3576.95,12438.54,33622.75,32613.09,24395.42,27733.76,12235.12,8644.25
1389994.599,3212.79,12438.68,33615.78,32614.04,24392.61,27707.25,12216.52,8642.2
1389994.601,2590.94,12368.06,33616.69,32616.71,24408.39,27655.27,12092.78,8661.7
1389994.603,2098.7,12261.11,33617.79,32631.02,24422.79,27613.31,11943.06,8676.96
1389994.605,2111.39,12218.57,33634.48,32656.01,24441.05,27625.52,11879.92,8690.84
1389994.607,2477.84,12239.41,33650.78,32665.88,24452.88,27662.9,11918.12,8692.41
1389994.609,2996.35,12298.49,33663.37,32665.64,24456.98,27696.09,12022.07,8685.69
1389994.611,3437.9,12371.88,33650.07,32648.66,24430.71,27712.97,12138.7,8671.52
1389994.613,3605.08,12424.66,33623.41,32619.86,24399.0,27722.55,12219.57,8649.78
1389994.615,3393.79,12451.94,33612.78,32609.18,24393.51,27711.63,12240.79,8648.59
1389994.617,2812.82,12410.21,33608.11,32611.9,24407.1,27673.68,12147.76,8663.37
1389994.619,2233.31,12315.66,33618.93,32631.54,24433.43,27636.63,12001.04,8690.31
1389994.621,2069.62,12244.89,33633.9,32650.95,24453.55,27627.61,11901.38,8701.04
1389994.623,2349.04,12249.04,33653.93,32673.79,24468.0,27660.47,11908.91,8709.38
1389994.625,2821.64,12291.48,33666.19,32680.71,24464.32,27701.05,11991.41,8710.81
1389994.627,3328.75,12372.88,33668.81,32672.6,24451.59,27744.34,12118.29,8705.9
1389994.629,3613.0,12434.67,33650.12,32647.66,24431.42,27756.5,12218.43,8686.21
1389994.631,3520.39,12456.08,33619.46,32623.72,24404.67,27743.92,12252.86,8661.03
1389994.633,3030.06,12425.33,33597.62,32615.95,24395.85,27699.38,12186.24,8654.88
1389994.635,2388.86,12330.72,33592.7,32619.86,24407.68,27643.97,12041.47,8666.18
1389994.637,2058.46,12246.71,33611.06,32643.75,24433.81,27625.9,11917.45,8688.93
1389994.639,2202.32,12222.91,33623.51,32651.67,24443.92,27636.44,11879.3,8697.22
1389994.641,2629.23,12240.13,33628.04,32644.94,24435.67,27661.47,11926.56,8692.22
1389994.643,3151.51,12309.51,33636.0,32642.8,24428.13,27702.62,12039.95,8681.97
1389994.645,3535.08,12393.52,33639.63,32640.41,24421.12,27744.34,12169.17,8665.85
1389994.647,3591.01,12449.03,33630.28,32630.26,24411.3,27764.61,12253.14,8651.83
1389994.649,3248.12,12449.93,33616.45,32623.34,24406.48,27748.25,12231.26,8649.49
1389994.651,2616.79,12377.17,33608.44,32619.05,24416.59,27697.23,12107.85,8660.65
1389994.653,2125.36,12273.22,33616.5,32635.88,24436.29,27627.19,11952.83,8670.28
1389994.655,2129.65,12238.93,33641.1,32669.41,24457.89,27634.48,11896.95,8693.36
1389994.657,2503.44,12265.4,33667.43,32694.63,24474.53,27685.79,11944.58,8725.12
1389994.659,3002.12,12312.89,33663.94,32685.24,24456.07,27716.35,12029.98,8715.68
1389994.661,3432.85,12358.48,33629.33,32645.99,24410.16,27716.4,12120.2,8667.57
1389994.663,3610.13,12420.85,33617.36,32625.54,24394.42,27731.9,12210.66,8652.21
1389994.665,3407.24,12455.42,33616.64,32628.44,24398.71,27728.7,12229.73,8656.79
1389994.667,2835.56,12414.17,33607.15,32624.34,24406.48,27694.85,12149.19,8664.08
1389994.669,2241.8,12308.03,33602.38,32628.11,24424.46,27647.55,11999.8,8677.2
1389994.671,2081.82,12249.85,33623.13,32653.29,24450.83,27633.15,11904.0,8697.46
1389994.673,2353.0,12258.25,33658.56,32683.81,24476.2,27669.15,11912.01,8718.54
1389994.675,2840.57,12301.49,33675.15,32689.62,24472.81,27709.25,11996.46,8705.71
1389994.677,3326.08,12367.77,33670.95,32675.41,24452.5,27736.14,12107.28,8689.12
1389994.679,3583.1,12407.59,33623.32,32619.43,24400.43,27718.12,12180.38,8651.54
1389994.681,3479.67,12422.47,33595.52,32588.87,24378.45,27700.95,12210.94,8638.0
1389994.683,3035.74,12417.27,33595.23,32599.5,24389.41,27677.44,12165.26,8648.3
1389994.685,2384.71,12328.05,33595.95,32612.57,24412.92,27639.15,12023.5,8672.24
1389994.687,2070.38,12250.33,33615.88,32639.17,24445.63,27630.71,11908.34,8702.09
1389994.689,2199.03,12225.15,33639.24,32659.49,24463.32,27633.1,11873.15,8719.87
1389994.691,2645.3,12259.06,33653.79,32669.93,24468.33,27665.9,11936.33,8722.97
1389994.693,3149.08,12330.01,33665.99,32681.04,24468.62,27721.74,12049.06,8720.49
1389994.695,3550.96,12411.88,33656.74,32670.12,24443.53,27754.17,12171.56,8695.32
1389994.697,3585.29,12453.75,33635.95,32645.28,24419.98,27758.12,12246.09,8672.19
1389994.699,3262.9,12457.47,33609.78,32625.87,24396.85,27717.26,12223.67,8656.31
1389994.701,2598.29,12377.45,33598.57,32625.63,24401.81,27666.95,12092.02,8662.56
1389994.703,2138.76,12273.31,33604.29,32635.98,24420.17,27628.0,11940.62,8676.43
1389994.705,2094.08,12214.71,33614.69,32645.61,24433.19,27616.69,11857.7,8688.16
1389994.707,2471.54,12229.83,33629.99,32649.71,24441.2,27644.78,11886.07,8695.65
1389994.709,2948.81,12280.94,33635.76,32645.71,24437.48,27686.84,11985.59,8690.26
1389994.711,3443.1,12369.92,33644.68,32646.95,24434.14,27725.03,12122.16,8681.01
1389994.713,3590.82,12422.37,33629.52,32624.01,24413.16,27737.19,12209.04,8663.13
1389994.715,3410.58,12455.04,33620.27,32620.91,24405.48,27723.74,12233.26,8662.51
1389994.717,2804.8,12397.58,33594.76,32607.85,24399.43,27665.38,12129.26,8656.79
1389994.719,2231.03,12290.62,33591.04,32612.52,24417.36,27619.7,11972.29,8672.38
1389994.721,2031.85,12223.53,33614.45,32634.69,24448.83,27609.26,11873.39,8700.8
1389994.723,2314.28,12217.05,33629.42,32648.95,24458.32,27625.47,11866.86,8711.58
1389994.725,2773.91,12257.39,33643.15,32655.05,24454.79,27665.57,11950.54,8705.0
1389994.727,3296.04,12338.69,33648.78,32657.34,24440.34,27710.92,12084.63,8688.4
1389994.729,3567.6,12404.87,33629.95,32636.55,24413.4,27741.15,12200.26,8666.09
1389994.731,3507.61,12439.68,33612.21,32630.21,24399.0,27744.87,12246.51,8657.27
1389994.733,3034.59,12427.05,33603.72,32632.74,24406.63,27716.54,12195.16,8667.52
1389994.735,2395.06,12330.15,33606.01,32636.22,24423.32,27661.18,12051.11,8679.63
1389994.737,2051.26,12241.89,33618.36,32651.62,24443.77,27623.7,11913.44,8687.54
1389994.739,2194.07,12214.33,33636.38,32670.22,24457.41,27645.07,11870.67,8695.56
1389994.741,2613.59,12236.55,33636.57,32660.73,24447.92,27680.35,11921.55,8696.7
1389994.743,3113.79,12292.86,33631.04,32651.71,24429.51,27704.24,12024.4,8693.89
1389994.745,3505.9,12377.36,33617.55,32638.03,24406.96,27715.97,12150.53,8679.1
1389994.747,3548.29,12412.12,33598.09,32616.81,24384.02,27707.48,12216.09,8646.39
1389994.749,3208.83,12412.93,33581.4,32609.13,24376.11,27669.29,12186.05,8631.75
1389994.751,2569.39,12345.41,33585.65,32618.24,24402.14,27637.96,12075.76,8665.71
1389994.753,2116.16,12258.48,33603.82,32637.41,24434.04,27623.61,11947.92,8698.75
1389994.755,2092.03,12208.03,33627.8,32660.3,24459.08,27625.13,11870.05,8716.2
1389994.7572,2475.93,12233.45,33651.26,32681.99,24472.33,27659.13,11905.77,8722.45
1389994.7592,2963.83,12288.48,33662.75,32690.1,24472.67,27708.49,12007.86,8714.68
1389994.7612,3441.38,12369.73,33649.64,32685.95,24443.92,27740.91,12133.31,8686.26
1389994.7632,3580.76,12410.21,33618.98,32652.67,24405.15,27738.86,12212.71,8663.85
1389994.7652,3401.71,12436.15,33594.71,32626.78,24380.88,27712.25,12219.34,8654.4
1389994.7672,2799.65,12386.61,33585.5,32605.79,24390.08,27660.61,12123.78,8662.46
1389994.7692,2233.27,12288.71,33587.36,32601.07,24409.11,27618.08,11982.44,8680.39
1389994.7712,2021.07,12208.13,33601.72,32616.57,24432.38,27604.34,11874.39,8701.18
1389994.7732,2312.71,12210.61,33619.12,32637.89,24444.2,27629.09,11875.2,8715.2
1389994.7752,2766.42,12255.0,33629.47,32652.19,24447.87,27683.02,11963.04,8719.64
1389994.7772,3305.15,12345.22,33641.58,32660.44,24439.24,27728.13,12096.6,8707.57
1389994.7792,3588.39,12427.67,33649.4,32663.16,24434.19,27762.8,12215.09,8700.61
1389994.7812,3554.73,12471.58,33646.97,32658.01,24425.94,27757.93,12266.54,8691.07
1389994.7832,3040.5,12425.14,33611.78,32621.67,24400.9,27695.71,12184.91,8667.04
1389994.7852,2399.78,12317.71,33592.37,32604.22,24398.76,27640.35,12025.5,8664.75
1389994.7872,2038.67,12230.35,33606.82,32625.49,24425.08,27629.0,11908.29,8689.55
1389994.789,2206.14,12220.86,33632.04,32654.72,24447.11,27649.88,11886.03,8698.89
1389994.791,2605.15,12246.66,33644.25,32657.91,24451.64,27686.65,11938.14,8701.56
1389994.793,3125.95,12297.3,33631.85,32634.98,24423.55,27707.25,12026.5,8685.21
1389994.795,3494.02,12367.92,33617.88,32614.19,24398.14,27724.56,12135.46,8665.09
1389994.797,3570.03,12422.99,33604.53,32605.7,24383.69,27733.19,12214.47,8652.16
1389994.799,3227.0,12430.76,33593.56,32607.61,24381.16,27704.15,12196.26,8646.97
1389994.801,2605.06,12359.24,33587.98,32613.9,24390.61,27658.13,12072.23,8653.59
1389994.803,2106.62,12254.95,33594.99,32620.48,24410.3,27643.45,11931.95,8666.71
1389994.805,2097.8,12208.37,33611.83,32636.84,24433.81,27656.46,11861.8,8685.16
1389994.807,2439.88,12212.47,33618.5,32636.6,24434.24,27663.19,11880.49,8686.97
1389994.809,2945.95,12264.78,33624.56,32634.69,24428.42,27658.85,11972.33,8681.63
1389994.811,3415.39,12357.19,33628.66,32632.59,24419.41,27703.86,12107.66,8678.72
1389994.813,3623.44,12439.44,33641.87,32640.37,24426.08,27748.97,12233.07,8689.79
1389994.815,3455.35,12492.85,33658.65,32659.11,24448.83,27767.47,12286.57,8712.53
1389994.817,2878.57,12441.26,33641.49,32649.81,24443.53,27712.11,12183.24,8705.09
1389994.819,2241.95,12297.44,33605.15,32620.1,24421.17,27633.38,11995.51,8679.39
1389994.821,2049.21,12219.05,33618.36,32639.36,24434.9,27619.51,11883.78,8690.45
1389994.823,2304.84,12209.08,33626.08,32648.81,24435.0,27638.82,11874.34,8689.93
1389994.825,2765.94,12239.12,33624.03,32639.94,24421.74,27666.24,11941.58,8677.39
1389994.827,3268.53,12312.56,33620.65,32627.01,24407.15,27698.81,12051.3,8664.28
1389994.829,3567.65,12386.51,33610.44,32616.09,24393.61,27721.79,12164.26,8652.12
1389994.831,3512.1,12436.3,33599.43,32611.85,24387.03,27720.26,12226.73,8648.4
1389994.833,3047.66,12420.18,33590.27,32612.95,24387.08,27684.5,12170.79,8651.4
1389994.835,2417.61,12341.07,33605.06,32626.54,24412.3,27650.93,12043.14,8680.01
1389994.837,2071.29,12256.34,33626.23,32652.43,24439.05,27634.05,11914.87,8702.57
1389994.839,2194.55,12226.3,33636.1,32664.78,24447.16,27642.3,11869.81,8702.66
1389994.841,2602.24,12236.17,33636.0,32660.2,24440.82,27666.1,11912.78,8695.89
1389994.843,3124.38,12303.74,33634.57,32658.01,24429.42,27692.51,12018.11,8688.26
1389994.845,3515.05,12385.42,33625.56,32643.75,24407.82,27719.74,12140.42,8673.24
1389994.847,3594.73,12453.61,33628.85,32638.79,24407.91,27747.68,12236.41,8669.81
1389994.849,3270.58,12471.96,33627.9,32642.8,24417.02,27731.8,12227.68,8674.86
1389994.851,2637.96,12399.44,33616.83,32636.07,24426.03,27680.78,12102.75,8680.15
1389994.853,2137.23,12296.39,33625.32,32648.85,24449.59,27652.41,11960.32,8700.47
1389994.855,2125.17,12255.91,33646.11,32676.65,24470.86,27649.45,11886.26,8714.72
1389994.857,2470.11,12257.39,33648.45,32683.9,24465.85,27651.93,11900.95,8712.15
1389994.859,2946.04,12283.37,33622.89,32649.81,24426.13,27666.91,11972.33,8683.49
1389994.861,3396.7,12347.03,33607.58,32623.63,24397.04,27706.53,12088.2,8665.66
1389994.863,3594.54,12417.13,33596.62,32613.9,24381.16,27731.66,12189.58,8654.26
1389994.865,3408.38,12451.46,33595.9,32618.43,24386.6,27720.36,12223.15,8658.93
1389994.867,2843.43,12412.45,33596.52,32619.86,24396.71,27666.29,12138.99,8663.51
1389994.869,2237.37,12302.35,33602.38,32626.2,24415.07,27607.97,11974.86,8674.67
1389994.871,2057.46,12233.64,33618.64,32649.66,24438.05,27593.95,11870.43,8693.6
1389994.873,2310.9,12231.4,33640.01,32668.31,24457.31,27624.28,11874.15,8713.2
1389994.875,2796.55,12283.71,33656.93,32678.66,24464.28,27669.96,11962.7,8720.92
1389994.877,3306.2,12367.2,33669.29,32685.62,24462.75,27721.84,12098.17,8720.4
1389994.879,3602.74,12428.33,33640.91,32653.72,24427.37,27732.66,12201.26,8683.16
1389994.881,3495.88,12432.15,33598.05,32609.18,24383.88,27704.48,12224.34,8635.43
1389994.883,3047.9,12411.6,33586.89,32605.08,24374.3,27660.99,12158.25,8619.07
1389994.885,2405.21,12331.3,33605.53,32625.68,24402.14,27632.38,12030.22,8652.02
1389994.887,2081.92,12266.59,33639.53,32672.7,24443.01,27624.66,11915.02,8697.22
1389994.889,2167.85,12211.71,33625.7,32670.69,24431.18,27613.55,11843.68,8682.97
1389994.891,2599.53,12231.45,33614.93,32660.2,24419.98,27643.16,11897.23,8675.96
1389994.893,3094.24,12288.95,33605.39,32641.75,24406.72,27674.96,12001.33,8668.38
1389994.895,3511.05,12374.69,33593.37,32617.86,24388.89,27703.05,12128.4,8659.08
1389994.897,3559.64,12426.19,33585.93,32596.74,24382.26,27715.07,12214.04,8651.93
1389994.899,3263.09,12444.21,33579.54,32592.92,24385.22,27693.8,12207.75,8653.45
1389994.901,2607.16,12373.02,33575.68,32597.26,24398.95,27650.65,12083.2,8664.85
1389994.903,2133.75,12276.56,33586.79,32619.48,24423.55,27624.9,11942.77,8689.6
1389994.905,2087.97,12228.25,33612.3,32648.76,24450.16,27632.86,11872.58,8717.11
1389994.907,2471.69,12248.18,33634.86,32667.07,24459.13,27663.95,11907.67,8725.12
1389994.909,2949.48,12298.49,33642.92,32657.72,24452.64,27703.81,12008.33,8715.49
1389994.911,3429.6,12368.11,33624.84,32626.59,24421.74,27729.18,12123.49,8677.91
1389994.913,3596.5,12430.14,33611.59,32606.8,24403.05,27745.11,12222.01,8650.16
1389994.915,3425.31,12452.51,33599.52,32606.03,24391.03,27729.51,12237.55,8635.52
1389994.917,2832.41,12405.3,33591.13,32606.56,24391.61,27682.45,12136.89,8645.73
1389994.919,2277.8,12330.15,33619.17,32643.51,24431.52,27661.09,12011.67,8695.56
1389994.921,2046.49,12240.55,33616.98,32645.37,24434.62,27632.48,11891.8,8701.61
1389994.923,2295.11,12214.76,33613.83,32636.69,24426.18,27631.67,11868.29,8690.07
1389994.925,2744.68,12247.09,33614.78,32626.2,24416.97,27658.08,11936.48,8676.58
1389994.927,3259.71,12314.85,33604.53,32615.14,24398.62,27689.41,12049.63,8659.51
1389994.929,3558.54,12396.86,33599.38,32610.42,24391.61,27721.65,12171.65,8652.78
1389994.931,3515.34,12435.96,33590.37,32607.99,24386.84,27723.55,12228.68,8644.01
1389994.933,3059.29,12429.33,33587.51,32613.66,24392.7,27689.51,12177.66,8644.63
1389994.935,2414.89,12340.21,33587.89,32624.3,24406.29,27640.25,12037.71,8654.83
1389994.937,2051.74,12246.37,33598.24,32635.03,24419.74,27606.59,11912.39,8671.71
1389994.939,2177.43,12223.01,33626.94,32660.15,24444.96,27608.35,11863.47,8697.7
1389994.941,2605.39,12251.9,33638.91,32668.26,24448.68,27646.93,11917.4,8699.61
1389994.943,3099.97,12301.59,33632.95,32655.43,24430.56,27676.49,12009.81,8684.35
1389994.945,3504.18,12384.61,33621.12,32638.08,24410.39,27712.68,12136.51,8667.66
1389994.947,3572.37,12440.92,33618.36,32626.06,24406.1,27734.38,12225.77,8664.04
1389994.949,3259.56,12446.64,33603.34,32609.28,24394.56,27709.39,12212.56,8653.69
1389994.951,2594.33,12359.53,33584.55,32597.16,24397.33,27659.42,12080.72,8659.41
1389994.953,2117.01,12265.73,33591.23,32616.05,24421.17,27636.72,11937.38,8681.01
1389994.955,2064.9,12215.09,33607.3,32645.66,24444.44,27608.92,11858.56,8704.23
1389994.957,2448.18,12244.89,33636.48,32672.93,24463.37,27645.78,11900.71,8725.26
1389994.959,2919.05,12279.32,33632.62,32656.77,24441.87,27676.39,11975.81,8705.19
1389994.961,3401.8,12355.28,33618.79,32632.64,24411.25,27689.41,12092.69,8672.29
1389994.963,3566.31,12404.82,33600.62,32606.65,24393.23,27699.33,12190.49,8650.07
1389994.965,3405.91,12436.92,33592.8,32602.55,24390.32,27691.65,12219.57,8645.49
1389994.967,2815.06,12392.38,33583.93,32605.56,24399.19,27655.03,12131.6,8658.12
1389994.969,2252.48,12299.92,33588.46,32618.29,24417.21,27620.89,11987.64,8677.39
1389994.971,2016.88,12214.81,33606.49,32633.21,24437.19,27602.49,11870.58,8697.46
1389994.973,2314.28,12237.03,33646.92,32673.08,24467.52,27651.6,11888.46,8730.6
1389994.975,2770.0,12281.32,33657.79,32684.43,24466.8,27704.29,11972.38,8728.7
1389994.977,3286.27,12339.59,33634.62,32657.34,24428.08,27722.17,12075.19,8689.36
1389994.979,3551.63,12393.86,33610.3,32626.3,24395.99,27718.74,12162.97,8647.87
1389994.981,3527.69,12441.3,33603.39,32616.29,24383.88,27711.63,12214.76,8627.61
1389994.983,3044.75,12418.13,33587.51,32604.94,24374.92,27661.14,12151.96,8627.37
1389994.985,2412.99,12328.29,33582.79,32613.33,24383.98,27615.17,12012.29,8646.06
1389994.987,2033.66,12232.11,33593.99,32627.78,24407.39,27587.08,11885.69,8672.76
1389994.989,2175.38,12211.51,33604.96,32641.03,24425.94,27603.63,11849.64,8681.54
1389994.991,2596.95,12252.9,33623.84,32659.11,24448.83,27663.38,11924.27,8703.42
1389994.993,3129.24,12312.56,33623.13,32651.19,24434.95,27692.37,12033.65,8692.84
1389994.995,3498.13,12373.83,33603.53,32620.82,24399.57,27703.48,12140.42,8660.37
1389994.997,3584.34,12427.38,33594.52,32605.08,24384.5,27719.02,12224.96,8649.21
1389994.999,3251.74,12436.06,33592.51,32599.6,24388.13,27694.51,12205.65,8653.59
1389995.001,2634.38,12370.73,33588.99,32604.89,24399.38,27646.21,12085.06,8664.08
1389995.003,2134.32,12278.7,33603.96,32625.92,24432.04,27625.52,11952.78,8696.37
1389995.005,2102.52,12228.2,33624.03,32651.57,24451.45,27627.61,11873.39,8715.25
1389995.007,2434.83,12231.02,33632.95,32654.53,24450.69,27649.84,11891.32,8715.2
1389995.009,2945.66,12284.42,33643.44,32659.11,24447.92,27686.84,11982.63,8711.15
1389995.011,3413.3,12365.01,33643.54,32652.86,24437.81,27724.22,12111.47,8700.32
1389995.013,3625.92,12446.12,33649.02,32659.01,24442.68,27760.51,12233.59,8704.09
1389995.015,3415.82,12445.83,33605.63,32619.91,24403.29,27720.17,12231.64,8663.42
1389995.017,2822.64,12370.68,33562.66,32587.39,24368.91,27634.29,12107.14,8627.37
1389995.019,2218.63,12270.83,33567.1,32599.74,24383.55,27589.32,11957.36,8641.15
1389995.021,2018.02,12199.78,33585.89,32625.87,24404.91,27582.17,11853.51,8663.23
1389995.023,2278.47,12202.03,33606.01,32639.7,24418.93,27614.17,11853.93,8674.19
1389995.025,2745.77,12236.74,33615.74,32637.08,24414.02,27647.31,11924.65,8654.55
1389995.027,3257.56,12314.18,33622.17,32629.92,24404.43,27682.74,12048.68,8645.01
1389995.029,3584.19,12403.87,33626.75,32627.97,24404.19,27729.9,12181.52,8649.3
1389995.031,3544.76,12455.08,33613.16,32627.06,24403.53,27743.87,12248.18,8653.36
1389995.033,3096.72,12449.12,33609.82,32640.32,24415.07,27717.4,12201.6,8666.23
1389995.035,2464.01,12367.63,33617.79,32645.66,24440.1,27672.96,12065.08,8691.98
1389995.037,2095.6,12272.22,33627.47,32650.52,24460.75,27650.26,11934.23,8714.39
1389995.039,2188.64,12220.29,33618.5,32639.46,24444.63,27625.47,11861.66,8701.61
1389995.041,2577.5,12219.76,33612.68,32623.49,24426.65,27634.53,11895.37,8684.73
1389995.043,3105.12,12289.0,33616.31,32619.67,24411.25,27676.44,12004.04,8672.43
1389995.045,3509.19,12381.75,33617.69,32617.43,24398.14,27715.92,12133.98,8663.8
1389995.047,3583.67,12436.73,33607.39,32606.51,24385.12,27724.6,12218.67,8646.44
1389995.049,3258.85,12439.2,33598.38,32603.65,24380.88,27698.62,12200.79,8630.9
1389995.051,2646.78,12383.65,33604.1,32615.38,24404.58,27663.62,12096.6,8655.26
1389995.053,2129.41,12269.78,33600.86,32612.28,24417.45,27617.65,11941.01,8672.38
1389995.055,2082.3,12216.86,33607.34,32621.05,24429.94,27606.73,11856.22,8685.45
1389995.057,2428.01,12221.0,33622.22,32631.07,24440.72,27638.77,11879.54,8694.27
1389995.059,2943.04,12279.99,33635.95,32639.94,24441.29,27685.98,11985.11,8696.75
1389995.061,3410.01,12359.29,33636.19,32638.22,24428.08,27728.18,12115.1,8684.25
1389995.063,3610.8,12414.17,33612.16,32610.94,24398.14,27730.52,12204.46,8654.88
1389995.065,3426.22,12436.68,33602.58,32601.41,24390.51,27723.22,12230.4,8644.96
1389995.067,2876.0,12405.35,33600.19,32608.51,24400.09,27695.52,12159.97,8654.21
1389995.069,2274.04,12304.31,33612.78,32631.4,24425.89,27657.85,12010.15,8680.2
1389995.071,2084.59,12242.37,33638.29,32667.55,24454.98,27642.4,11899.28,8709.81
1389995.073,2327.39,12242.46,33662.75,32695.49,24474.58,27668.96,11895.23,8730.17
1389995.075,2765.23,12250.38,33633.0,32650.38,24434.0,27666.48,11943.06,8688.93
1389995.0771,3248.83,12306.88,33616.98,32620.72,24404.81,27696.76,12048.77,8661.7
1389995.0791,3579.33,12388.47,33605.82,32605.99,24389.08,27724.7,12164.45,8645.54
1389995.0811,3518.01,12426.76,33591.66,32600.65,24381.21,27725.7,12222.91,8634.62
1389995.0831,3085.18,12417.84,33585.12,32599.6,24381.74,27684.6,12172.65,8633.61
1389995.0851,2417.76,12319.52,33585.27,32598.45,24396.76,27622.13,12020.45,8652.12
1389995.0871,2063.56,12227.11,33596.81,32616.43,24417.21,27594.52,11886.6,8678.48
1389995.0891,2148.87,12194.92,33614.26,32636.07,24438.15,27600.91,11829.76,8698.66
1389995.0911,2597.76,12236.26,33640.29,32650.47,24453.36,27645.69,11897.85,8708.62
1389995.0931,3099.01,12296.58,33637.19,32638.22,24438.05,27695.13,12006.0,8692.79
1389995.0951,3520.39,12371.83,33616.5,32615.33,24404.81,27734.33,12130.5,8667.33
1389995.0971,3579.47,12421.85,33602.19,32599.98,24389.32,27741.39,12205.98,8655.36
1389995.0991,3289.65,12444.74,33599.19,32606.27,24391.56,27704.67,12202.65,8657.36
1389995.1011,2641.01,12379.65,33596.47,32610.75,24407.49,27632.29,12087.39,8669.9
1389995.1031,2149.25,12283.04,33604.72,32627.3,24433.04,27599.91,11943.48,8686.64
1389995.1051,2081.11,12231.4,33625.13,32656.72,24453.31,27599.91,11866.62,8704.52
1389995.1071,2457.91,12247.13,33646.54,32678.94,24458.13,27633.15,11896.52,8716.78
1389995.109,2924.2,12287.24,33643.92,32673.17,24442.77,27669.62,11982.49,8701.75
1389995.111,3409.05,12361.34,33632.14,32658.2,24414.73,27696.33,12095.07,8675.96
1389995.113,3592.16,12425.14,33621.7,32637.65,24397.66,27720.5,12198.93,8652.12
1389995.115,3457.45,12468.15,33621.74,32636.31,24401.81,27730.66,12246.23,8650.69
1389995.117,2900.27,12451.22,33637.77,32648.33,24434.24,27708.44,12183.76,8682.54
1389995.119,2298.78,12338.35,33626.42,32644.7,24441.34,27652.12,12021.64,8700.09
1389995.121,2043.68,12233.02,33612.78,32635.98,24436.57,27604.77,11882.69,8699.94
1389995.123,2282.19,12209.89,33611.11,32633.83,24439.19,27602.87,11855.08,8698.42
1389995.125,2722.93,12236.26,33607.06,32620.67,24428.28,27630.05,11916.02,8687.02
1389995.127,3247.98,12312.46,33610.49,32615.62,24414.59,27676.25,12039.9,8677.34
1389995.129,3562.59,12393.81,33602.19,32598.79,24395.61,27707.06,12157.58,8661.89
1389995.131,3531.55,12439.63,33596.62,32591.3,24391.65,27719.26,12222.86,8656.07
1389995.133,3090.95,12427.95,33585.08,32588.25,24389.6,27692.94,12179.47,8649.4
1389995.135,2441.98,12334.54,33583.36,32595.16,24404.43,27637.91,12036.23,8653.93
1389995.137,2055.22,12241.22,33586.12,32605.13,24418.26,27596.05,11896.75,8669.66
1389995.139,2155.54,12205.08,33598.57,32619.67,24427.56,27607.92,11848.02,8686.26
1389995.1411,2581.64,12230.11,33608.92,32626.3,24425.22,27638.63,11905.91,8689.4
1389995.1431,3076.12,12282.42,33605.48,32618.96,24410.25,27664.47,12004.33,8676.96
1389995.1451,3495.46,12370.02,33604.58,32610.18,24398.9,27703.0,12132.31,8661.32
1389995.1471,3586.82,12440.87,33614.59,32616.29,24406.67,27735.71,12237.36,8668.14
1389995.1491,3318.26,12473.01,33617.6,32625.39,24411.97,27721.46,12243.89,8674.43
1389995.1511,2643.06,12377.07,33585.03,32605.22,24394.71,27652.74,12097.03,8648.78
1389995.1531,2137.57,12271.79,33581.02,32616.48,24407.44,27615.93,11945.54,8660.41
1389995.1551,2062.32,12211.18,33600.05,32647.04,24427.8,27612.59,11860.09,8689.83
1389995.1571,2422.43,12219.29,33612.73,32650.09,24429.61,27634.43,11875.68,8694.94
1389995.1591,2898.65,12264.16,33621.41,32634.41,24428.04,27673.1,11962.56,8689.45
1389995.1611,3395.08,12343.93,33614.54,32610.8,24408.87,27700.38,12088.59,8668.38
1389995.1631,3578.9,12405.3,33599.91,32594.4,24395.85,27717.64,12191.06,8654.26
1389995.1651,3434.8,12440.16,33594.52,32598.55,24392.18,27714.16,12230.78,8649.11
1389995.1671,2859.35,12403.87,33598.9,32607.8,24405.43,27687.98,12152.39,8663.46
1389995.1691,2293.87,12322.95,33610.73,32631.5,24428.61,27669.67,12016.68,8684.3
1389995.1711,2041.91,12236.88,33620.65,32644.94,24440.67,27653.84,11899.85,8691.88
1389995.1731,2296.64,12224.58,33629.56,32654.38,24437.57,27662.57,11877.44,8695.7
1389995.1751,2732.71,12253.91,33630.76,32651.09,24425.08,27666.72,11936.95,8690.36
1389995.1771,3269.2,12328.2,33628.37,32635.5,24405.96,27692.99,12060.6,8670.38
1389995.1791,3557.49,12399.1,33619.31,32609.85,24388.13,27716.35,12176.47,8650.69
1389995.1811,3537.46,12436.34,33599.57,32590.54,24373.87,27713.02,12230.11,8624.55
1389995.1831,3074.31,12419.27,33588.18,32588.53,24382.5,27682.5,12182.19,8617.5
1389995.1851,2435.49,12325.29,33578.92,32582.24,24395.37,27628.33,12030.94,8632.04
1389995.1871,2033.38,12225.68,33586.65,32594.26,24414.73,27594.47,11891.6,8663.46
1389995.1891,2160.02,12199.74,33599.81,32616.91,24420.17,27603.3,11851.26,8675.1
1389995.1911,2557.8,12216.9,33606.29,32618.96,24417.45,27636.63,11904.72,8669.9
1389995.1931,3087.57,12285.0,33611.44,32615.57,24410.73,27673.15,12015.15,8661.27
1389995.1951,3486.01,12363.86,33600.48,32596.59,24390.56,27704.43,12133.7,8639.72
1389995.1971,3590.2,12424.42,33585.08,32580.47,24370.39,27728.99,12219.38,8622.89
1389995.1991,3274.73,12434.63,33567.96,32568.94,24357.7,27705.63,12214.04,8611.49
1389995.2011,2650.31,12362.29,33555.03,32564.31,24364.14,27653.36,12086.58,8617.07
1389995.2031,2119.35,12254.53,33559.47,32574.47,24384.6,27608.59,11925.08,8639.38
1389995.2051,2064.37,12198.88,33575.78,32599.45,24406.05,27593.71,11841.39,8659.41
1389995.2071,2398.21,12209.7,33595.95,32611.99,24420.17,27627.04,11870.19,8668.47
1389995.2091,2906.61,12264.54,33607.39,32610.99,24413.68,27673.44,11973.91,8661.13
1389995.2111,3390.6,12351.32,33607.2,32604.32,24397.28,27714.4,12107.52,8642.63
1389995.2131,3587.29,12405.59,33586.51,32586.34,24369.05,27718.74,12191.44,8616.59
1389995.2151,3404.43,12418.41,33559.04,32567.79,24343.87,27692.8,12201.69,8593.08
1389995.2171,2841.81,12367.25,33540.06,32549.67,24339.39,27637.39,12106.13,8590.27
1389995.2191,2232.69,12267.4,33544.83,32550.86,24358.9,27596.05,11961.41,8607.1
1389995.2211,2009.63,12200.45,33570.34,32585.67,24388.84,27597.48,11858.61,8638.57
1389995.2231,2255.25,12200.88,33590.75,32613.95,24403.1,27618.89,11857.18,8654.21
1389995.2251,2721.55,12237.74,33604.58,32621.67,24405.15,27652.7,11928.23,8654.31
1389995.2271,3233.0,12316.66,33604.53,32610.23,24393.61,27689.13,12052.68,8642.72
1389995.2291,3544.19,12383.65,33582.36,32577.61,24366.48,27705.48,12160.92,8613.54
1389995.2311,3513.43,12424.52,33564.0,32564.79,24349.84,27707.01,12217.28,8592.8
1389995.2331,3073.03,12410.12,33559.37,32567.93,24346.4,27674.01,12162.78,8588.93
1389995.2351,2420.9,12321.19,33558.52,32570.75,24361.09,27636.96,12027.17,8602.67
1389995.2371,2020.17,12217.95,33563.43,32580.05,24377.64,27601.39,11882.4,8619.64
1389995.2391,2128.98,12191.68,33583.41,32598.12,24392.89,27605.58,11830.0,8644.34
1389995.2411,2539.73,12221.15,33606.2,32608.89,24404.0,27623.23,11890.22,8657.41
1389995.2431,3086.57,12308.89,33634.52,32624.77,24414.21,27678.92,12021.97,8665.37
1389995.2451,3477.67,12364.82,33603.05,32586.24,24370.01,27684.74,12119.77,8620.36
1389995.2471,3558.45,12411.41,33576.64,32559.16,24344.64,27688.94,12192.87,8591.8
1389995.2491,3256.7,12424.9,33573.39,32565.31,24351.98,27679.64,12194.25,8588.36
1389995.2511,2642.25,12365.68,33569.72,32573.42,24368.34,27637.15,12084.63,8592.56
1389995.2531,2123.17,12266.59,33578.3,32591.63,24389.7,27604.96,11935.62,8616.02
1389995.2551,2072.24,12221.62,33601.67,32616.43,24413.3,27603.44,11857.84,8642.96
1389995.2571,2397.01,12225.44,33613.88,32625.35,24419.69,27623.8,11872.1,8665.52
1389995.2591,2902.84,12273.41,33620.6,32622.53,24412.44,27658.28,11964.27,8670.52
1389995.2611,3387.83,12356.38,33628.52,32622.87,24410.3,27701.1,12095.93,8666.42
1389995.2631,3608.13,12425.04,33616.88,32603.98,24396.42,27719.17,12198.4,8649.78
1389995.2651,3421.26,12433.96,33588.27,32580.81,24369.48,27694.75,12208.13,8624.41
1389995.2671,2865.41,12379.79,33560.9,32570.84,24355.61,27636.58,12103.7,8608.91
1389995.2691,2237.84,12269.02,33561.19,32578.09,24374.2,27596.24,11951.69,8619.74
1389995.2711,2026.65,12199.16,33587.08,32600.84,24403.05,27590.8,11846.21,8639.53
1389995.2731,2255.82,12198.16,33617.07,32628.59,24423.98,27620.27,11842.78,8659.51
1389995.2751,2717.78,12227.78,33612.4,32614.43,24406.72,27641.68,11909.96,8648.78
1389995.2771,3208.02,12289.33,33603.1,32591.97,24382.55,27668.24,12024.79,8632.37
1389995.2791,3560.69,12380.12,33600.86,32587.87,24373.77,27703.81,12156.3,8628.66
1389995.2811,3520.44,12426.38,33592.37,32587.1,24370.48,27708.87,12221.62,8629.85
1389995.2831,3113.51,12430.57,33595.28,32602.7,24383.88,27691.8,12194.83,8640.34
1389995.2851,2445.13,12334.54,33590.23,32604.65,24393.8,27641.78,12053.63,8648.4
1389995.2871,2061.51,12230.68,33591.08,32607.13,24400.57,27601.77,11902.91,8655.07
1389995.2891,2131.37,12193.11,33605.72,32620.58,24414.21,27610.5,11850.17,8665.8
1389995.2911,2553.65,12212.09,33611.68,32618.62,24409.77,27642.16,11894.13,8665.75
1389995.2931,3041.6,12265.68,33603.62,32599.07,24391.42,27673.3,11993.12,8648.3
1389995.2951,3486.54,12355.23,33597.81,32589.01,24374.68,27702.1,12126.49,8630.04
1389995.2971,3562.74,12410.79,33586.94,32580.09,24362.04,27717.88,12222.15,8614.16
1389995.2991,3291.04,12430.72,33577.45,32578.28,24358.8,27695.28,12212.85,8609.11
1389995.3011,2642.63,12360.24,33567.0,32573.13,24367.1,27649.6,12086.01,8618.45
1389995.3031,2142.33,12262.68,33578.02,32589.96,24394.56,27629.09,11942.34,8644.2
1389995.3051,2053.45,12206.46,33600.19,32614.04,24417.83,27627.42,11852.12,8667.47
1389995.3071,2422.76,12229.63,33629.66,32636.55,24436.29,27663.38,11888.65,8686.54
1389995.3091,2917.48,12301.07,33659.41,32652.91,24448.73,27723.03,11999.56,8695.79
1389995.3111,3380.97,12347.84,33623.41,32608.7,24393.94,27699.38,12092.02,8642.72
1389995.3131,3551.39,12386.28,33579.35,32565.5,24349.07,27680.88,12170.36,8601.57
1389995.3151,3419.83,12417.41,33566.86,32561.64,24342.06,27685.31,12203.17,8595.13
1389995.3171,2852.96,12378.84,33559.85,32552.87,24347.69,27654.98,12121.73,8597.47
1389995.3191,2258.59,12284.71,33569.24,32563.21,24375.58,27617.51,11973.05,8623.03
1389995.3211,2014.07,12210.18,33586.41,32588.39,24402.29,27591.28,11854.6,8647.01
1389995.3231,2258.49,12208.32,33611.3,32611.99,24417.78,27606.59,11851.84,8660.7
1389995.3251,2706.91,12246.61,33621.55,32614.85,24412.78,27644.83,11922.79,8657.69
1389995.3271,3220.56,12307.79,33609.73,32606.13,24390.37,27676.73,12026.93,8635.19
1389995.3291,3544.43,12382.94,33596.95,32591.44,24370.67,27699.76,12144.47,8619.64
1389995.3311,3519.73,12422.23,33584.84,32578.19,24359.52,27702.29,12203.74,8609.68
1389995.3331,3089.71,12411.55,33572.01,32565.41,24357.37,27666.81,12152.43,8608.01
1389995.3351,2443.93,12332.49,33580.88,32577.33,24381.64,27630.52,12019.35,8632.57
1389995.3371,2073.05,12263.59,33610.73,32611.28,24422.17,27618.6,11904.67,8669.62
1389995.3391,2166.8,12248.61,33648.35,32650.14,24458.22,27635.63,11869.96,8693.74
1389995.3411,2565.43,12251.76,33636.72,32632.88,24436.38,27641.2,11898.9,8665.75
1389995.3431,3039.79,12278.46,33604.29,32596.97,24395.13,27646.83,11972.57,8632.33
1389995.3451,3471.57,12375.4,33602.67,32593.78,24385.55,27689.13,12116.58,8633.9
1389995.3471,3557.83,12428.19,33594.09,32584.24,24375.25,27697.85,12203.5,8628.75
1389995.3491,3279.64,12436.68,33579.97,32574.32,24360.95,27662.09,12184.1,8615.83
1389995.3511,2629.52,12358.29,33564.38,32567.17,24361.66,27607.11,12056.07,8616.26
1389995.3531,2113.29,12253.76,33567.86,32577.9,24377.21,27564.0,11906.67,8628.89
1389995.3551,2021.12,12197.4,33588.99,32600.69,24399.95,27560.76,11828.19,8648.54
1389995.3571,2386.47,12219.38,33615.16,32618.19,24414.4,27600.91,11859.08,8661.41
1389995.3591,2858.54,12264.25,33625.75,32618.96,24411.49,27649.6,11945.58,8661.13
1389995.3611,3367.71,12345.51,33615.02,32610.94,24390.13,27690.51,12071.28,8644.63
1389995.3631,3573.37,12406.4,33602.34,32589.15,24375.73,27708.01,12174.13,8628.8
1389995.3651,3456.69,12453.8,33605.39,32595.16,24379.83,27704.91,12216.14,8631.71
1389995.3671,2892.92,12425.33,33612.78,32606.08,24397.19,27667.81,12140.56,8646.82
1389995.3691,2304.51,12327.96,33612.68,32611.9,24410.68,27610.93,11991.17,8658.89
1389995.3711,2037.72,12243.89,33626.99,32632.4,24434.81,27594.38,11867.91,8683.44
1389995.3731,2281.81,12232.92,33641.49,32647.95,24443.06,27614.5,11855.32,8692.69
1389995.3751,2694.56,12235.93,33625.94,32620.1,24419.31,27630.9,11906.05,8664.85
1389995.3771,3229.95,12303.4,33622.22,32608.32,24398.0,27674.68,12021.02,8642.53
1389995.3791,3540.18,12380.65,33617.55,32602.27,24385.46,27713.35,12149.76,8626.13
1389995.3811,3544.95,12427.28,33610.35,32590.25,24375.35,27715.88,12208.75,8613.97
1389995.3831,3089.48,12408.5,33591.66,32576.04,24370.29,27645.54,12152.1,8612.16
1389995.3851,2463.44,12337.16,33597.76,32591.92,24398.57,27613.31,12026.84,8641.96
1389995.3871,2047.16,12240.32,33610.68,32611.18,24425.22,27597.19,11895.23,8669.66
1389995.3891,2146.63,12204.84,33624.56,32626.59,24436.76,27604.77,11842.59,8679.77
1389995.3911,2523.66,12211.47,33621.17,32616.91,24423.51,27631.91,11876.87,8664.8
1389995.3931,3040.27,12260.82,33609.25,32603.7,24399.19,27657.66,11969.28,8641.82
1389995.3951,3446.34,12338.45,33597.43,32589.11,24378.73,27675.82,12090.83,8623.55
1389995.3971,3563.12,12397.58,33586.94,32574.28,24364.9,27683.64,12184.43,8609.68
1389995.3991,3269.96,12412.12,33575.35,32570.8,24360.61,27672.25,12188.44,8604.58
1389995.4011,2649.59,12345.55,33567.96,32572.42,24368.58,27626.42,12073.18,8610.39
1389995.4031,2122.02,12252.05,33580.45,32591.73,24394.56,27599.39,11935.14,8636.43
1389995.4051,2058.41,12203.41,33603.62,32619.72,24420.41,27595.14,11854.13,8661.89
1389995.4071,2383.9,12206.65,33617.69,32626.44,24432.52,27622.51,11868.57,8672.05
1389995.4091,2885.77,12258.34,33631.52,32623.91,24432.47,27672.58,11968.28,8673.81
1389995.4111,3363.32,12330.06,33615.83,32600.07,24402.24,27702.72,12088.44,8648.21
1389995.4131,3579.52,12387.94,33595.47,32575.28,24376.2,27709.39,12179.04,8625.27
1389995.4151,3426.22,12421.08,33584.98,32566.74,24368.62,27693.08,12211.47,8615.45
1389995.4171,2888.97,12388.8,33581.17,32570.18,24375.3,27655.89,12135.65,8620.64
1389995.4191,2272.13,12292.1,33579.45,32577.14,24390.32,27616.36,11990.74,8636.14
1389995.4211,2028.42,12218.76,33594.99,32603.12,24409.82,27613.07,11882.78,8655.17
1389995.4231,2269.36,12220.38,33623.13,32631.93,24424.51,27643.25,11882.5,8673.34
1389995.4251,2734.9,12261.11,33639.39,32638.12,24424.75,27673.92,11961.13,8674.53
1389995.4271,3246.26,12334.97,33639.2,32629.06,24420.26,27706.82,12075.38,8665.52
1389995.4291,3553.58,12390.38,33614.11,32600.12,24402.91,27724.08,12179.47,8640.96
1389995.4311,3525.78,12417.89,33588.27,32576.37,24383.36,27712.68,12230.59,8619.12
1389995.4331,3081.23,12388.71,33562.43,32561.93,24367.72,27656.8,12160.49,8603.62
1389995.4351,2435.26,12308.41,33565.76,32568.79,24385.65,27610.21,12024.79,8619.83
1389995.4371,2029.85,12209.08,33572.2,32571.94,24399.33,27578.17,11879.64,8634.14
1389995.4391,2123.26,12183.33,33587.84,32584.53,24411.25,27588.08,11833.48,8649.54
1389995.4411,2534.44,12216.76,33620.08,32605.75,24432.52,27642.49,11897.8,8654.93
1389995.4431,3039.65,12264.21,33611.06,32586.53,24406.58,27665.76,11993.36,8616.83
1389995.4451,3438.19,12326.77,33583.17,32552.82,24365.86,27677.4,12093.83,8584.79
1389995.4471,3554.39,12389.66,33570.2,32538.56,24348.79,27687.08,12181.38,8580.97
1389995.4491,3262.76,12407.11,33565.95,32540.66,24353.08,27675.73,12182.62,8591.99
1389995.4511,2660.56,12357.43,33571.63,32553.68,24378.45,27644.07,12084.72,8614.59
1389995.4531,2122.74,12252.62,33578.59,32563.93,24400.71,27606.82,11932.42,8634.62
1389995.4551,2038.62,12195.16,33587.51,32575.75,24411.97,27589.28,11833.62,8641.86
1389995.4571,2365.3,12203.98,33609.87,32588.2,24428.56,27622.89,11856.13,8653.31
1389995.4591,2877.05,12259.39,33622.32,32590.06,24428.51,27670.2,11951.4,8651.4
1389995.4611,3336.62,12313.65,33600.72,32559.4,24393.04,27693.32,12056.5,8614.16
1389995.4631,3567.41,12385.94,33589.46,32545.95,24376.87,27717.64,12164.55,8598.23
1389995.4651,3408.67,12406.16,33570.25,32532.41,24362.19,27691.94,12188.48,8581.88
1389995.4671,2879.24,12373.31,33560.33,32533.17,24364.43,27638.82,12105.99,8582.21
1389995.4691,2245.38,12272.26,33565.48,32544.14,24389.08,27595.67,11955.21,8605.77
1389995.4711,2009.2,12205.03,33589.99,32572.99,24419.02,27578.31,11851.12,8635.19
1389995.4731,2197.41,12168.93,33590.23,32571.89,24411.16,27573.4,11809.06,8625.89
1389995.4751,2660.18,12197.07,33589.99,32568.84,24400.14,27602.15,11873.53,8612.16
1389995.4771,3163.34,12263.82,33587.13,32560.3,24385.12,27648.21,11993.79,8598.23
1389995.4791,3517.77,12344.5,33579.02,32542.47,24368.77,27673.53,12111.33,8582.78
1389995.4811,3491.02,12384.99,33572.3,32524.92,24366.57,27673.2,12179.19,8576.35
1389995.4831,3097.58,12389.85,33572.06,32527.74,24376.44,27658.51,12158.35,8584.55
1389995.4851,2438.45,12317.13,33582.26,32546.67,24401.86,27627.66,12035.51,8612.44
1389995.4871,2054.12,12228.97,33598.33,32570.46,24426.22,27604.54,11895.85,8636.05
1389995.4891,2122.21,12200.4,33622.17,32592.97,24447.83,27621.46,11852.93,8655.6
1389995.4911,2548.17,12229.3,33638.67,32597.69,24453.6,27668.19,11907.29,8658.36
1389995.4931,3032.88,12275.55,33629.56,32579.57,24429.28,27706.1,12000.04,8633.81
1389995.4951,3485.11,12360.05,33618.36,32564.64,24404.81,27730.61,12117.48,8612.4
1389995.4971,3584.19,12425.85,33616.21,32562.78,24401.14,27743.77,12212.85,8610.44
1389995.4991,3314.78,12436.68,33604.05,32562.36,24393.7,27711.06,12202.79,8598.33
1389995.5011,2659.99,12359.81,33585.93,32555.97,24394.47,27640.39,12080.62,8594.08
1389995.5031,2144.81,12263.92,33596.23,32570.99,24414.78,27607.63,11942.1,8615.07
1389995.5051,2039.34,12203.74,33616.98,32592.59,24439.34,27599.67,11848.74,8634.85
1389995.5071,2392.34,12209.04,33635.14,32604.65,24446.92,27628.66,11864.47,8643.34
1389995.5091,2845.96,12237.93,33620.03,32580.05,24421.55,27651.36,11941.43,8623.84
1389995.5111,3327.8,12305.64,33600.53,32551.96,24391.22,27668.53,12052.25,8599.9
1389995.5131,3531.36,12365.29,33575.97,32521.78,24365.38,27679.07,12151.29,8577.3
1389995.5151,3412.29,12401.34,33565.33,32512.57,24357.13,27672.2,12189.77,8571.34
1389995.5171,2864.31,12368.78,33557.85,32509.71,24362.09,27621.75,12107.04,8579.49
1389995.5191,2257.06,12268.45,33563.05,32525.78,24385.17,27576.4,11956.03,8600.52
1389995.5211,1989.51,12186.39,33572.01,32544.28,24403.62,27556.57,11835.86,8614.21
1389995.5231,2210.43,12166.55,33578.92,32557.92,24405.34,27572.44,11805.63,8605.34
1389995.5251,2647.54,12198.35,33578.92,32549.34,24394.71,27609.07,11871.77,8586.69
1389995.5271,3167.3,12267.78,33582.6,32541.85,24384.88,27654.37,11993.65,8578.83
1389995.5291,3509.52,12350.27,33580.07,32528.31,24376.2,27677.49,12119.25,8565.09
1389995.5311,3518.92,12407.92,33586.46,32533.27,24382.74,27691.22,12196.54,8578.25
1389995.5331,3127.53,12422.66,33595.38,32545.95,24398.81,27683.83,12175.13,8607.67
1389995.5351,2475.88,12336.64,33595.85,32550.62,24413.59,27639.82,12037.09,8630.47
1389995.5371,2059.17,12226.06,33591.7,32556.73,24416.16,27596.43,11886.79,8635.0
1389995.5391,2106.81,12179.19,33603.91,32579.71,24427.51,27599.48,11827.71,8641.24
1389995.5411,2511.12,12194.21,33604.72,32577.76,24420.65,27629.66,11872.1,8627.56
1389995.5431,3014.61,12250.04,33610.01,32568.98,24410.16,27681.45,11975.48,8610.68
1389995.5451,3448.44,12323.76,33592.32,32540.85,24377.16,27707.25,12093.35,8575.77
1389995.5471,3521.63,12352.37,33558.42,32503.8,24342.11,27671.77,12161.21,8539.58
1389995.5491,3266.29,12372.5,33549.74,32502.85,24338.15,27636.67,12163.97,8539.73
1389995.5511,2638.77,12318.52,33557.8,32510.19,24358.61,27610.26,12061.93,8568.62
1389995.5531,2131.61,12235.21,33577.06,32535.27,24391.56,27590.23,11928.7,8605.2
1389995.5551,2022.51,12178.23,33598.09,32555.77,24419.22,27585.32,11840.15,8630.47
1389995.5572,2372.31,12185.58,33606.96,32556.78,24421.74,27608.11,11854.32,8631.52
1389995.5592,2838.99,12232.88,33615.88,32558.59,24420.65,27655.46,11949.3,8629.28
1389995.5612,3343.11,12314.51,33609.35,32548.67,24399.66,27695.42,12077.86,8607.96
1389995.5632,3535.51,12358.57,33578.64,32519.77,24363.23,27700.86,12171.6,8574.39
1389995.5652,3431.94,12402.39,33570.91,32524.78,24360.47,27694.32,12208.03,8572.39
1389995.5672,2865.74,12359.76,33553.7,32507.09,24355.27,27637.58,12117.63,8567.52
1389995.5692,2270.17,12268.97,33558.85,32517.39,24372.49,27595.57,11970.76,8586.12
1389995.5712,2013.49,12214.42,33601.14,32572.42,24425.08,27602.91,11880.83,8638.53
1389995.5732,2250.96,12212.23,33620.46,32596.88,24443.63,27619.75,11870.96,8653.45
1389995.5752,2651.5,12216.43,33602.81,32566.65,24417.16,27634.72,11914.54,8624.32
1389995.5772,3177.12,12281.85,33591.56,32547.1,24390.75,27660.8,12026.22,8599.9
1389995.5792,3492.93,12355.47,33574.63,32527.4,24367.91,27685.6,12141.85,8577.35
1389995.5812,3500.18,12394.57,33557.94,32515.2,24351.31,27692.04,12199.21,8559.7
1389995.5832,3076.36,12384.37,33546.5,32511.14,24349.98,27657.56,12154.39,8557.37
1389995.5852,2445.84,12303.54,33543.26,32522.4,24365.76,27609.88,12022.88,8569.05
1389995.5872,2015.64,12208.84,33559.23,32544.09,24389.08,27578.69,11891.41,8592.8
1389995.5891,2119.68,12194.78,33599.43,32580.76,24417.45,27598.19,11847.93,8620.74
1389995.5911,2502.78,12205.79,33604.2,32569.7,24409.63,27634.67,11882.12,8613.16
1389995.5931,3010.46,12247.42,33585.36,32538.56,24382.78,27675.54,11976.1,8583.88
1389995.5951,3448.11,12344.55,33599.05,32539.75,24388.13,27734.95,12124.59,8590.94
1389995.5971,3582.57,12410.59,33600.14,32537.51,24385.36,27742.58,12215.04,8593.46
1389995.5991,3296.76,12417.46,33575.25,32518.77,24368.48,27690.56,12204.6,8579.4
1389995.6011,2670.1,12344.89,33555.65,32505.95,24362.47,27607.87,12081.29,8571.77
1389995.6031,2116.35,12233.26,33556.66,32509.04,24377.06,27570.54,11928.46,8580.78
1389995.6051,2030.09,12179.71,33579.31,32535.46,24399.66,27574.59,11846.11,8599.95
1389995.6071,2334.4,12175.37,33587.98,32544.0,24400.76,27594.43,11854.22,8601.38
1389995.6091,2818.06,12212.56,33587.75,32545.86,24389.32,27624.75,11933.76,8590.37
1389995.6111,3310.49,12296.58,33589.03,32544.71,24377.16,27669.39,12061.36,8576.82
1389995.6131,3549.48,12364.2,33580.88,32526.97,24364.9,27694.32,12168.5,8563.33
1389995.6151,3418.59,12397.72,33570.39,32514.39,24357.7,27685.41,12206.99,8559.23
1389995.6171,2905.32,12375.79,33575.01,32522.63,24375.39,27658.04,12140.9,8576.58
1389995.6191,2290.44,12280.99,33578.07,32532.98,24394.23,27619.46,11999.61,8595.99
1389995.6211,2020.31,12195.16,33588.7,32552.34,24409.11,27593.23,11868.91,8613.73
1389995.6231,2237.7,12194.21,33619.74,32576.95,24433.28,27617.27,11854.79,8635.0
1389995.6251,2689.08,12232.35,33635.43,32585.82,24438.34,27664.14,11932.09,8640.39
1389995.6271,3195.91,12290.19,33618.5,32564.5,24409.11,27683.83,12038.14,8613.06
1389995.6291,3516.1,12352.37,33591.23,32534.79,24377.68,27692.08,12146.62,8581.97
1389995.6311,3508.0,12382.79,33562.62,32505.09,24351.27,27686.17,12200.55,8554.36
1389995.6331,3096.29,12367.73,33546.02,32489.59,24343.26,27649.31,12150.72,8546.88
1389995.6351,2453.28,12291.58,33543.3,32491.88,24358.9,27609.26,12020.4,8562.04
1389995.6371,2025.27,12197.21,33556.89,32512.43,24385.26,27577.21,11883.12,8587.93
1389995.6391,2090.88,12164.74,33575.82,32536.46,24401.48,27573.35,11826.61,8601.95
1389995.6411,2480.65,12178.47,33587.7,32545.48,24402.38,27603.3,11863.66,8601.62
1389995.6431,2995.97,12238.79,33592.9,32543.57,24391.08,27645.02,11970.57,8592.89
1389995.6451,3422.88,12316.56,33590.7,32533.6,24377.06,27678.73,12092.11,8580.59
1389995.6471,3554.73,12380.84,33581.83,32523.35,24368.1,27696.28,12185.0,8568.24
1389995.6491,3284.41,12397.39,33570.29,32519.82,24362.47,27678.54,12188.34,8555.08
1389995.6511,2686.45,12347.65,33567.86,32527.5,24375.35,27632.91,12084.2,8560.47
1389995.6531,2146.91,12250.62,33579.59,32550.53,24402.38,27603.68,11942.44,8590.27
1389995.6551,2054.6,12193.11,33597.04,32578.19,24419.02,27603.96,11852.79,8617.69
1389995.6571,2360.06,12193.3,33613.16,32587.48,24423.98,27639.34,11860.37,8633.66
1389995.6591,2845.91,12239.74,33611.44,32573.8,24409.44,27674.25,11941.67,8624.75
1389995.6611,3313.26,12304.59,33596.19,32549.96,24385.6,27687.93,12052.01,8601.52
1389995.6631,3562.93,12377.45,33585.84,32533.7,24371.67,27693.61,12163.88,8591.37
1389995.6651,3442.91,12423.47,33593.47,32539.61,24380.73,27712.54,12222.15,8597.57
1389995.6671,2924.35,12385.7,33571.01,32528.55,24367.72,27664.57,12140.7,8582.74
1389995.6691,2279.42,12275.74,33561.28,32529.98,24376.06,27605.73,11981.63,8588.27
1389995.6711,2022.79,12203.89,33576.87,32552.87,24400.28,27588.08,11875.58,8607.53
1389995.6731,2196.98,12176.9,33581.88,32554.44,24401.1,27601.91,11849.79,8605.39
1389995.6751,2653.41,12211.37,33589.37,32553.87,24394.66,27647.12,11919.83,8597.04
1389995.6771,3157.04,12275.94,33592.51,32545.67,24383.83,27692.04,12029.08,8587.6
1389995.6791,3521.82,12358.24,33588.51,32528.21,24371.82,27712.3,12149.81,8577.63
1389995.6811,3502.66,12399.91,33572.11,32513.34,24359.8,27704.91,12214.23,8568.34
1389995.6831,3123.71,12399.87,33558.71,32517.34,24356.61,27664.24,12176.32,8564.81
1389995.6851,2475.31,12326.24,33566.43,32536.94,24382.26,27622.23,12041.67,8587.5
1389995.6871,2083.16,12240.51,33584.79,32564.79,24413.54,27606.44,11911.87,8615.11
1389995.6891,2126.17,12209.7,33615.78,32602.17,24445.3,27624.13,11866.14,8647.78
1389995.6911,2515.7,12207.56,33604.53,32588.68,24424.27,27635.67,11891.8,8631.09
1389995.6931,2975.04,12235.07,33571.82,32545.0,24381.12,27644.73,11964.89,8591.51
1389995.6951,3429.32,12321.19,33567.34,32533.89,24364.14,27681.31,12088.4,8572.91
1389995.6971,3540.71,12378.93,33560.9,32517.96,24354.41,27703.34,12186.48,8561.66
1389995.6991,3306.58,12406.49,33562.81,32525.11,24360.66,27689.46,12200.26,8561.04
1389995.7011,2687.69,12354.47,33563.52,32535.13,24375.87,27640.82,12083.34,8575.25
1389995.7031,2171.18,12265.35,33576.87,32553.96,24401.57,27606.54,11946.92,8602.95
1389995.7051,2029.47,12187.01,33580.93,32556.54,24405.34,27585.65,11840.77,8607.58
1389995.7071,2340.27,12178.09,33580.93,32552.77,24400.48,27600.63,11843.92,8600.47
1389995.7091,2810.53,12226.77,33589.32,32553.72,24396.23,27647.5,11939.48,8598.81
1389995.7111,3325.27,12312.46,33596.0,32559.16,24387.7,27690.8,12068.89,8593.75
1389995.7131,3573.56,12398.53,33602.72,32563.69,24388.13,27728.99,12191.25,8599.28
1389995.7151,3467.61,12428.57,33588.08,32552.68,24378.4,27719.83,12226.25,8591.13
1389995.7171,2932.74,12397.15,33576.3,32544.57,24380.5,27678.68,12153.29,8591.56
1389995.7191,2312.85,12297.68,33572.82,32543.38,24389.03,27628.85,12002.99,8600.95
1389995.7211,2021.03,12211.04,33582.74,32554.06,24403.38,27602.06,11878.06,8613.4
1389995.7231,2216.05,12185.72,33595.76,32564.93,24410.16,27613.6,11844.35,8617.5
1389995.7251,2659.27,12222.24,33602.15,32571.61,24409.87,27651.55,11909.92,8615.4
1389995.7271,3169.35,12288.52,33603.43,32572.51,24395.8,27689.08,12021.3,8603.62
1389995.7291,3516.91,12364.91,33593.37,32559.3,24380.54,27714.97,12137.99,8586.31
1389995.7311,3530.88,12411.6,33588.79,32553.72,24377.92,27726.18,12210.66,8582.02
1389995.7331,3146.98,12415.12,33578.5,32549.24,24375.58,27695.04,12184.29,8583.45
1389995.7351,2486.66,12323.86,33568.62,32540.75,24383.4,27635.2,12041.76,8594.51
1389995.7371,2062.08,12227.01,33573.01,32543.42,24398.23,27591.52,11897.76,8606.01
1389995.7391,2090.6,12178.57,33585.5,32549.81,24406.58,27582.31,11828.95,8611.25
1389995.7411,2492.0,12197.88,33594.52,32546.57,24404.77,27620.6,11871.67,8606.82
1389995.7431,2993.3,12259.29,33605.82,32550.39,24404.05,27677.49,11979.2,8607.77
1389995.7451,3455.88,12352.85,33606.96,32549.58,24395.04,27723.27,12121.96,8598.28
1389995.7471,3562.5,12399.72,33594.52,32534.6,24381.64,27725.37,12207.18,8585.17
1389995.7491,3324.56,12418.46,33577.49,32525.45,24368.77,27686.98,12207.22,8573.15
1389995.7511,2699.28,12360.38,33573.44,32526.5,24378.83,27643.92,12097.12,8583.36
1389995.7531,2195.31,12285.52,33598.52,32555.35,24414.02,27631.29,11970.24,8616.93
1389995.7551,2049.88,12216.28,33606.82,32567.46,24427.37,27615.6,11865.81,8628.56
1389995.7571,2361.82,12209.37,33602.48,32566.5,24419.26,27626.57,11861.09,8621.6
1389995.7591,2815.29,12241.75,33603.34,32565.31,24411.35,27659.23,11943.63,8613.49
1389995.7611,3341.91,12332.92,33606.77,32563.17,24403.62,27702.95,12080.24,8607.1
1389995.7631,3552.82,12385.8,33587.75,32535.6,24380.64,27715.16,12176.42,8581.59
1389995.7651,3455.69,12419.37,33576.16,32528.36,24368.67,27704.91,12212.33,8567.14
1389995.7671,2922.11,12388.99,33575.49,32534.84,24378.73,27667.0,12139.42,8575.73
1389995.7691,2320.39,12295.01,33577.49,32538.42,24393.7,27618.13,11984.78,8590.08
1389995.7711,2009.58,12212.13,33595.28,32560.88,24420.41,27603.68,11864.76,8618.36
1389995.7731,2221.73,12196.02,33608.97,32581.71,24426.22,27616.27,11835.67,8625.7
1389995.7751,2646.35,12218.1,33616.64,32582.38,24423.55,27644.26,11891.22,8620.22
1389995.7771,3191.71,12298.49,33624.13,32579.71,24417.83,27691.94,12020.73,8612.2
1389995.7791,3527.83,12370.54,33612.16,32552.58,24396.14,27721.36,12141.66,8593.8
1389995.7811,3543.52,12404.01,33582.02,32516.05,24366.81,27722.79,12194.97,8565.95
1389995.7831,3117.04,12388.23,33555.03,32496.36,24353.55,27704.29,12155.2,8550.93
1389995.7851,2484.61,12309.6,33551.51,32502.66,24367.48,27657.56,12022.54,8565.86
1389995.7871,2046.82,12223.87,33576.78,32533.94,24403.57,27617.93,11899.0,8602.57
1389995.7891,2132.32,12213.28,33622.65,32586.01,24447.16,27607.02,11864.95,8646.35
1389995.7911,2485.13,12203.98,33613.97,32574.99,24431.61,27611.64,11878.25,8631.23
1389995.7931,2990.68,12245.08,33599.67,32558.21,24402.53,27636.91,11964.08,8600.86
1389995.7951,3427.65,12325.96,33594.28,32545.67,24387.46,27677.63,12087.06,8582.07
1389995.7971,3564.98,12380.17,33580.59,32533.6,24369.86,27694.13,12179.19,8566.95
1389995.7991,3304.58,12398.48,33568.58,32517.91,24364.9,27681.26,12189.63,8562.38
1389995.8011,2705.05,12346.65,33567.58,32512.1,24380.45,27643.49,12090.16,8574.63
1389995.8031,2150.44,12247.04,33581.17,32527.21,24406.58,27605.11,11941.91,8588.89
1389995.8051,2035.09,12182.81,33597.09,32552.77,24422.51,27589.8,11848.74,8603.38
1389995.8071,2344.18,12187.86,33610.16,32567.36,24428.75,27617.7,11865.43,8618.36
1389995.8091,2834.46,12234.5,33618.93,32569.89,24426.89,27661.52,11952.88,8625.79
1389995.8111,3319.03,12307.36,33606.06,32551.58,24401.38,27695.47,12073.8,8605.15
1389995.8131,3556.54,12361.19,33582.5,32520.39,24371.67,27703.48,12165.79,8575.49
1389995.8151,3433.42,12385.13,33562.62,32503.99,24351.08,27680.21,12190.15,8558.08
1389995.8171,2918.24,12360.24,33559.71,32508.33,24360.04,27641.87,12123.78,8567.62
1389995.8191,2296.54,12272.45,33568.29,32523.83,24390.13,27611.5,11984.3,8595.94
1389995.8211,2015.3,12193.11,33587.65,32550.1,24421.36,27605.3,11868.76,8623.27
1389995.8231,2226.78,12192.06,33616.83,32582.29,24448.25,27636.29,11857.8,8647.49
1389995.8251,2667.48,12219.81,33625.65,32583.53,24447.83,27668.67,11919.79,8646.2
1389995.8271,3173.49,12275.74,33607.92,32562.45,24415.54,27689.46,12020.54,8613.4
1389995.8291,3512.14,12337.59,33584.6,32537.18,24381.78,27698.66,12122.06,8581.83
1389995.8311,3518.77,12376.31,33560.04,32514.24,24358.18,27686.41,12176.66,8558.32
1389995.8331,3124.19,12374.55,33551.94,32511.62,24360.85,27661.37,12149.0,8560.8
1389995.8351,2496.43,12313.18,33558.04,32525.5,24384.84,27634.43,12036.85,8586.36
1389995.8371,2058.89,12221.86,33575.06,32547.05,24412.35,27615.22,11900.76,8615.64
1389995.8391,2107.43,12191.11,33601.67,32567.7,24434.66,27626.09,11846.5,8634.33
1389995.8411,2494.24,12207.65,33620.08,32577.47,24442.91,27659.66,11887.41,8640.0
1389995.8431,3012.32,12261.01,33621.27,32570.41,24424.75,27683.55,11984.11,8625.94
1389995.8452,3420.02,12311.98,33589.32,32532.46,24377.87,27675.35,12074.04,8582.16
1389995.8472,3549.05,12357.57,33560.42,32502.32,24346.93,27666.38,12144.71,8553.08
1389995.8492,3304.58,12386.04,33558.42,32511.76,24353.41,27660.04,12159.87,8560.75
1389995.8512,2713.11,12342.65,33565.81,32525.97,24374.77,27630.38,12067.41,8578.59
1389995.8532,2149.53,12240.32,33583.55,32543.0,24408.3,27600.01,11922.17,8606.82
1389995.8552,2041.53,12183.57,33605.91,32565.31,24433.33,27596.91,11837.53,8628.99
1389995.8572,2338.65,12183.95,33620.36,32577.28,24444.87,27614.36,11850.98,8638.81
1389995.8592,2837.42,12240.32,33634.19,32588.77,24446.2,27665.28,11948.35,8642.58
1389995.8612,3330.18,12318.47,33636.86,32587.1,24437.72,27709.06,12076.09,8634.76
1389995.8632,3573.66,12370.54,33600.62,32546.81,24398.23,27707.39,12166.31,8597.8
1389995.8652,3438.43,12387.56,33573.2,32518.1,24374.92,27690.32,12191.58,8573.82
1389995.8672,2925.97,12353.99,33558.8,32511.38,24369.29,27647.74,12122.35,8566.76
1389995.8692,2281.09,12254.86,33557.8,32522.49,24386.03,27600.63,11969.85,8580.11
1389995.8712,2012.25,12182.28,33579.31,32553.96,24410.16,27585.89,11856.94,8602.1
1389995.8732,2188.54,12167.36,33604.44,32578.04,24428.75,27609.11,11835.05,8621.74
1389995.8752,2651.6,12203.36,33612.64,32575.61,24429.09,27653.17,11900.66,8623.27
1389995.8772,3155.18,12271.17,33615.59,32564.12,24419.55,27695.56,12014.34,8616.88
1389995.8792,3541.18,12357.19,33614.45,32548.86,24403.0,27722.17,12142.23,8601.67
1389995.8812,3531.17,12391.0,33587.84,32522.3,24380.64,27722.41,12197.4,8578.4
1389995.8832,3156.19,12384.8,33562.57,32511.62,24365.81,27678.21,12155.63,8560.94
1389995.8852,2492.9,12302.59,33561.76,32523.78,24384.26,27626.18,12023.83,8583.36
1389995.8872,2065.85,12206.51,33573.77,32540.37,24409.44,27589.75,11893.94,8607.91
1389995.8892,2086.45,12167.65,33596.28,32559.26,24431.61,27598.58,11834.43,8627.8
1389995.8912,2521.66,12213.85,33633.24,32587.82,24459.17,27655.18,11886.55,8653.31
1389995.8932,2994.97,12256.19,33619.07,32559.54,24428.32,27689.27,11982.63,8626.75
1389995.8952,3434.75,12316.42,33590.13,32524.45,24386.22,27691.51,12083.67,8584.41
1389995.8972,3557.59,12371.73,33575.21,32506.37,24372.01,27711.11,12173.89,8570.15
1389995.8992,3325.46,12386.04,33562.62,32501.27,24362.9,27661.52,12173.13,8559.42
1389995.9012,2702.86,12333.44,33568.29,32508.57,24384.31,27611.5,12069.42,8576.06
1389995.9032,2185.25,12260.87,33602.29,32547.76,24434.71,27608.4,11950.21,8621.84
1389995.9052,2031.28,12190.2,33612.21,32563.36,24447.11,27589.23,11843.73,8635.52
1389995.9072,2317.29,12164.4,33598.52,32552.25,24424.65,27590.47,11828.09,8614.21
1389995.9091,2776.34,12196.3,33599.14,32541.85,24411.82,27623.13,11905.96,8603.24
1389995.9111,3295.57,12277.56,33598.71,32532.46,24396.37,27661.57,12030.17,8587.27
1389995.9131,3545.0,12349.08,33584.31,32510.33,24379.21,27689.22,12144.66,8566.24
1389995.9151,3452.59,12387.94,33579.02,32507.33,24377.73,27699.9,12196.21,8561.28
1389995.9171,2946.9,12374.78,33580.83,32518.82,24389.65,27674.73,12141.28,8574.92
1389995.9191,2340.6,12296.34,33601.91,32548.62,24430.09,27651.36,12016.54,8614.68
1389995.9211,2015.88,12188.53,33592.85,32541.18,24429.09,27608.54,11875.06,8614.26
1389995.9231,2176.0,12144.85,33587.03,32539.23,24418.93,27592.95,11820.13,8606.77
1389995.9251,2625.27,12179.9,33598.19,32544.47,24420.55,27635.86,11892.51,8610.49
1389995.9271,3143.12,12243.42,33596.47,32533.55,24404.24,27678.3,12012.44,8593.46
1389995.9291,3495.41,12314.13,33579.88,32506.52,24372.39,27684.41,12114.81,8562.57
1389995.9311,3503.7,12349.27,33566.91,32491.21,24359.47,27681.16,12169.36,8547.45
1389995.9331,3136.11,12355.09,33559.18,32494.02,24363.33,27645.31,12133.55,8550.69
1389995.9351,2476.45,12276.36,33562.81,32504.18,24380.78,27605.54,12008.53,8569.29
1389995.9371,2047.92,12193.16,33581.07,32530.74,24410.2,27585.56,11883.45,8598.52
1389995.9391,2076.48,12160.68,33605.06,32563.17,24436.67,27598.77,11828.38,8625.03
1389995.9412,2467.2,12165.36,33601.53,32552.82,24419.26,27612.64,11853.55,8608.06
1389995.9432,2943.47,12205.32,33595.47,32534.65,24395.09,27638.25,11943.53,8585.74
1389995.9452,3406.05,12285.52,33582.02,32520.58,24373.49,27668.43,12066.41,8565.0
1389995.9472,3524.83,12331.39,33559.04,32497.6,24356.18,27673.2,12148.43,8547.97
1389995.9492,3312.02,12362.62,33550.22,32494.22,24352.79,27662.47,12163.5,8545.59
1389995.9512,2700.52,12318.9,33560.71,32512.67,24376.78,27634.96,12070.56,8569.29
1389995.9532,2168.37,12227.58,33564.57,32524.3,24395.47,27598.43,11927.32,8588.98
1389995.9552,2004.67,12157.63,33574.11,32534.6,24412.35,27588.28,11830.05,8604.58
1389995.9572,2325.2,12172.03,33594.23,32553.72,24428.66,27617.55,11851.69,8619.07
1389995.9592,2774.53,12200.79,33591.66,32544.04,24412.92,27656.13,11925.08,8602.57
1389995.9612,3292.37,12275.98,33583.84,32530.93,24387.55,27684.07,12044.1,8575.44
1389995.9632,3524.49,12339.16,33568.72,32508.52,24364.62,27698.66,12152.53,8554.79
1389995.9652,3444.48,12381.13,33558.37,32496.31,24355.8,27699.62,12201.41,8546.4
1389995.9672,2922.01,12362.48,33557.09,32503.75,24370.24,27668.62,12142.52,8560.9
1389995.9692,2312.95,12267.4,33552.36,32506.9,24383.83,27617.84,11989.17,8575.39
1389995.9712,1973.06,12163.31,33546.59,32508.81,24391.75,27578.69,11844.68,8581.83
1389995.9732,2168.85,12144.04,33558.75,32522.25,24401.05,27585.8,11809.3,8590.94
1389995.9752,2587.13,12174.42,33574.2,32530.31,24406.25,27618.94,11872.91,8597.52
1389995.9772,3132.01,12254.53,33593.42,32539.28,24409.68,27656.37,11997.94,8597.9
1389995.9792,3472.61,12320.95,33579.83,32519.77,24385.12,27672.72,12111.81,8573.01
1389995.9812,3508.28,12365.29,33563.57,32506.18,24367.24,27676.97,12181.86,8554.32
1389995.9832,3117.47,12362.67,33545.74,32499.94,24360.37,27647.5,12149.96,8550.69
1389995.9852,2482.37,12279.27,33529.76,32496.27,24361.57,27599.48,12017.68,8553.03
1389995.9872,2020.12,12182.43,33541.11,32514.86,24386.12,27579.17,11882.5,8575.39
1389995.9892,2061.65,12144.52,33556.37,32532.46,24397.61,27582.22,11819.65,8588.7
1389995.9912,2419.04,12148.33,33559.99,32526.97,24387.46,27607.97,11849.07,8581.93
1389995.9932,2932.45,12197.93,33559.76,32521.87,24372.63,27639.58,11942.2,8571.15
1389995.9952,3374.82,12282.09,33557.99,32509.43,24360.99,27674.58,12071.42,8558.56
1389995.9972,3524.83,12344.74,33548.41,32489.21,24345.11,27691.89,12169.51,8537.72
1389995.9992,3284.22,12366.63,33534.48,32479.81,24334.86,27677.97,12184.29,8522.27
1389996.0012,2704.48,12327.48,33535.87,32493.98,24356.89,27643.3,12097.41,8544.54
1389996.0032,2156.07,12245.94,33563.57,32525.54,24397.85,27628.14,11969.85,8588.55
1389996.0052,2015.16,12171.65,33574.44,32545.43,24414.49,27613.45,11858.56,8608.01
1389996.0072,2286.1,12150.43,33567.77,32538.13,24404.91,27612.59,11844.92,8596.33
1389996.0092,2773.38,12201.74,33580.97,32546.33,24409.34,27650.74,11938.81,8599.9
1389996.0112,3257.8,12263.01,33564.71,32516.77,24375.49,27673.2,12045.77,8564.43
1389996.0132,3498.41,12307.55,33531.62,32473.85,24334.53,27670.01,12132.79,8522.85
1389996.0152,3407.96,12347.99,33521.51,32464.89,24325.99,27664.0,12172.18,8515.45
1389996.0172,2910.85,12329.01,33519.61,32471.95,24337.49,27640.63,12115.43,8530.52
1389996.0192,2290.63,12245.85,33528.38,32491.45,24361.57,27619.89,11985.06,8561.61
1389996.0212,1987.31,12161.35,33553.18,32516.77,24387.46,27607.68,11866.0,8588.41
1389996.0232,2154.83,12136.75,33566.72,32525.88,24397.71,27588.47,11820.75,8595.56
1389996.0252,2575.06,12148.24,33569.01,32523.92,24393.61,27598.34,11871.96,8591.7
1389996.0272,3090.95,12210.61,33557.13,32509.47,24372.49,27643.64,11982.01,8571.01
1389996.0292,3454.02,12290.05,33546.98,32494.55,24354.22,27675.78,12103.75,8552.74
1389996.0312,3499.46,12348.37,33541.06,32485.78,24347.36,27694.75,12188.91,8544.35
1389996.0332,3118.18,12344.5,33526.14,32474.47,24342.68,27663.85,12159.68,8536.34
1389996.0352,2478.03,12270.02,33522.66,32477.91,24354.6,27609.64,12028.17,8546.83
1389996.0372,2017.16,12171.94,33530.14,32493.79,24374.39,27581.12,11885.22,8565.81
1389996.0392,2051.88,12138.32,33552.7,32521.2,24393.08,27589.52,11822.32,8587.98
1389996.0412,2428.34,12151.91,33572.87,32530.93,24396.37,27626.33,11860.66,8593.61
1389996.0432,2941.04,12205.98,33576.54,32526.59,24386.31,27654.7,11955.17,8581.5
1389996.0452,3364.52,12269.69,33556.66,32502.66,24361.04,27658.08,12060.55,8557.18
1389996.0472,3516.44,12325.43,33532.62,32482.01,24335.91,27665.81,12148.81,8533.96
1389996.0492,3277.16,12345.84,33521.51,32481.25,24328.19,27654.17,12155.92,8526.85
1389996.0512,2693.89,12300.3,33519.42,32484.92,24339.58,27615.88,12057.5,8536.2
1389996.0532,2138.28,12213.61,33539.97,32507.14,24375.11,27599.96,11924.94,8573.15
1389996.0552,2020.55,12163.5,33564.52,32529.36,24405.48,27604.25,11834.29,8603.86
1389996.0572,2289.1,12146.19,33567.0,32528.12,24405.01,27617.03,11820.89,8598.57
1389996.0592,2769.28,12183.67,33562.62,32524.64,24391.13,27632.91,11899.19,8580.54
1389996.0612,3249.07,12248.33,33551.32,32508.57,24367.14,27641.4,12012.67,8554.6
1389996.0632,3536.03,12328.48,33546.83,32493.98,24352.17,27673.53,12131.45,8539.34
1389996.0652,3428.75,12369.35,33543.64,32487.01,24350.46,27673.92,12180.0,8541.49
1389996.0672,2945.42,12349.75,33542.02,32488.64,24358.51,27639.25,12124.59,8549.93
1389996.0692,2298.5,12253.57,33545.64,32498.36,24380.78,27598.0,11981.3,8570.0
1389996.0712,2001.57,12166.41,33551.98,32511.52,24394.9,27574.97,11856.51,8582.12
1389996.0732,2155.59,12145.85,33575.25,32531.22,24410.35,27592.52,11824.8,8599.81
1389996.0752,2611.35,12177.47,33586.98,32533.84,24409.68,27631.43,11885.31,8600.9
1389996.0772,3116.8,12243.32,33584.79,32529.21,24399.28,27670.34,11996.7,8590.65
1389996.0792,3490.11,12314.42,33562.38,32502.89,24369.43,27686.12,12105.18,8559.99
1389996.0812,3476.86,12330.01,33520.89,32461.07,24332.24,27663.23,12146.81,8523.04
1389996.0832,3132.01,12338.35,33514.31,32467.08,24333.43,27633.1,12121.11,8523.61
1389996.0852,2475.64,12271.21,33519.65,32482.63,24351.79,27594.86,12003.66,8542.44
1389996.0872,2030.61,12177.28,33536.72,32501.56,24375.16,27568.53,11868.91,8568.91
1389996.0892,2031.85,12138.27,33560.9,32523.68,24397.33,27574.35,11808.3,8592.08
1389996.0912,2437.88,12159.83,33576.16,32530.6,24404.67,27608.11,11851.79,8596.33
1389996.0932,2927.88,12216.62,33583.6,32524.45,24397.9,27646.45,11948.97,8588.36
1389996.0952,3404.05,12302.11,33581.31,32513.0,24378.4,27680.21,12074.14,8569.43
1389996.0972,3540.04,12357.95,33565.86,32491.93,24363.19,27697.23,12167.22,8552.03
1389996.0992,3337.81,12387.71,33563.43,32499.6,24366.57,27684.02,12181.71,8555.51
1389996.1012,2706.34,12327.0,33554.18,32497.7,24370.48,27631.95,12074.66,8560.9
1389996.1032,2134.13,12205.51,33544.12,32495.93,24375.82,27582.7,11910.73,8563.76
1389996.1052,1959.32,12130.21,33556.89,32509.28,24392.66,27569.2,11811.21,8579.4
1389996.1072,2278.47,12131.02,33577.21,32522.59,24405.43,27595.67,11821.84,8590.17
1389996.1092,2742.91,12174.32,33583.74,32525.83,24402.86,27629.76,11901.14,8586.79
1389996.1112,3260.14,12250.66,33575.11,32513.81,24381.26,27660.8,12018.35,8568.96
1389996.1132,3524.07,12321.62,33557.66,32489.21,24362.09,27678.11,12130.26,8551.03
1389996.1152,3448.06,12361.81,33549.22,32484.77,24356.27,27681.07,12182.67,8544.49
1389996.1172,2932.26,12337.35,33536.15,32481.58,24356.42,27641.97,12113.91,8544.35
1389996.1192,2290.92,12239.41,33534.01,32491.16,24374.06,27600.48,11962.8,8559.04
1389996.1212,1982.93,12164.31,33556.51,32521.3,24403.53,27600.53,11845.4,8586.65
1389996.1232,2165.79,12156.11,33588.79,32555.68,24430.71,27636.25,11824.32,8614.49
1389996.1252,2601.34,12185.38,33592.75,32557.49,24424.13,27652.03,11889.22,8607.2
1389996.1272,3106.17,12236.17,33580.59,32537.37,24399.66,27649.22,11989.26,8583.98
1389996.1292,3481.63,12311.27,33565.81,32510.62,24370.34,27671.15,12108.8,8557.03
1389996.1312,3504.71,12350.85,33546.74,32484.15,24346.83,27669.39,12175.18,8535.2
1389996.1332,3145.41,12363.77,33537.44,32481.82,24349.64,27639.77,12150.48,8536.77
1389996.1352,2488.71,12288.24,33544.12,32495.65,24370.2,27593.76,12024.4,8560.61
1389996.1372,2054.17,12202.93,33566.96,32521.87,24404.48,27576.97,11893.37,8594.18
1389996.1392,2066.42,12169.41,33600.95,32558.92,24437.95,27597.62,11837.25,8625.94
1389996.1412,2451.09,12180.76,33601.76,32554.68,24432.33,27622.32,11864.23,8619.12
1389996.1432,2909.14,12194.11,33568.53,32508.81,24388.6,27627.76,11929.94,8574.3
1389996.1452,3387.59,12276.22,33555.42,32492.45,24362.71,27655.99,12054.35,8551.12
1389996.1472,3532.74,12342.93,33554.13,32489.97,24357.89,27677.01,12155.82,8549.41
1389996.1492,3325.99,12366.06,33545.64,32488.06,24350.46,27660.04,12172.89,8542.11
1389996.1512,2697.42,12310.17,33541.73,32492.69,24364.28,27622.85,12073.04,8552.22
1389996.1532,2149.82,12215.43,33546.07,32507.57,24383.36,27589.13,11926.56,8572.91
1389996.1552,1972.77,12146.09,33565.33,32526.64,24405.77,27583.08,11825.9,8594.47
1389996.1572,2287.58,12148.29,33579.64,32536.32,24412.3,27606.87,11831.09,8598.95
1389996.1592,2732.18,12176.09,33580.45,32525.59,24400.9,27634.58,11896.75,8585.98
1389996.1612,3260.33,12255.19,33572.82,32514.81,24382.12,27670.2,12017.82,8567.52
1389996.1632,3518.53,12327.96,33561.81,32499.13,24369.86,27694.51,12137.7,8553.79
1389996.1652,3482.58,12397.34,33573.06,32512.95,24382.55,27702.38,12212.09,8567.43
1389996.1672,2946.85,12363.77,33559.37,32512.1,24377.87,27656.13,12129.98,8560.28
1389996.1692,2323.72,12265.83,33553.56,32518.49,24388.08,27600.2,11977.72,8566.76
1389996.1712,1978.68,12172.99,33561.66,32533.79,24409.34,27570.44,11845.69,8586.65
1389996.1732,2161.41,12150.24,33570.53,32548.0,24416.02,27583.08,11811.4,8589.55
1389996.1752,2568.15,12169.6,33571.53,32542.38,24406.05,27610.35,11861.71,8574.58
1389996.1772,3116.99,12244.56,33579.26,32539.71,24395.99,27658.51,11984.21,8571.34
1389996.1792,3483.2,12325.38,33569.67,32516.34,24379.88,27689.75,12112.76,8563.28
1389996.1812,3546.91,12385.56,33567.86,32506.8,24377.83,27695.28,12197.07,8564.9
1389996.1832,3172.54,12393.0,33569.82,32509.14,24386.41,27673.58,12177.52,8577.54
1389996.1852,2515.13,12289.48,33544.93,32490.45,24379.88,27609.73,12028.98,8572.34
1389996.1872,2019.45,12170.55,33540.78,32494.31,24390.84,27575.83,11878.68,8580.59
1389996.1892,2038.29,12126.88,33556.42,32517.82,24402.19,27572.97,11808.83,8592.03
1389996.1912,2399.11,12133.17,33563.86,32515.72,24394.71,27588.51,11831.9,8583.36
1389996.1932,2921.87,12192.3,33578.3,32516.01,24394.56,27631.48,11940.05,8580.59
1389996.1952,3383.3,12278.08,33576.21,32506.8,24382.88,27663.38,12071.8,8569.05
1389996.1972,3550.43,12340.59,33566.53,32495.5,24371.96,27674.15,12161.64,8554.51
1389996.1992,3327.08,12370.06,33557.18,32492.26,24369.0,27663.9,12175.7,8551.93
1389996.2012,2730.04,12327.43,33554.08,32500.56,24383.21,27635.24,12087.82,8566.24
1389996.2032,2146.91,12226.63,33554.75,32512.95,24401.57,27601.44,11937.62,8584.79
1389996.2052,1977.49,12148.72,33563.57,32530.12,24414.26,27580.79,11821.8,8596.42
1389996.2072,2278.61,12158.68,33593.94,32559.64,24435.0,27609.21,11827.76,8616.35
1389996.2092,2767.52,12205.08,33612.64,32573.47,24438.57,27656.37,11913.11,8618.83
1389996.2112,3257.42,12258.48,33581.74,32544.28,24398.47,27666.72,12017.54,8579.16
1389996.2132,3518.92,12316.9,33557.37,32514.48,24367.38,27668.57,12119.87,8549.74
1389996.2152,3440.48,12358.62,33544.12,32492.59,24355.46,27666.0,12168.79,8535.0
1389996.2172,2940.85,12339.31,33541.35,32485.78,24367.53,27636.72,12110.85,8543.97
1389996.2192,2300.6,12246.09,33543.54,32491.97,24388.36,27586.65,11967.47,8561.99
1389996.2212,1968.48,12153.53,33560.33,32510.9,24411.63,27562.05,11835.53,8585.02
1389996.2232,2130.46,12129.59,33569.58,32521.2,24412.59,27567.58,11800.53,8588.22
1389996.2252,2542.93,12142.28,33564.29,32509.9,24397.57,27597.24,11852.89,8576.58
1389996.2272,3082.18,12218.05,33577.68,32508.76,24396.66,27650.98,11979.01,8572.63
1389996.2292,3463.08,12299.68,33576.64,32498.51,24383.88,27683.64,12100.94,8558.8
1389996.2312,3522.11,12359.67,33566.86,32494.6,24375.73,27694.04,12182.52,8552.93
1389996.2332,3142.17,12352.37,33541.02,32484.82,24361.52,27636.87,12149.0,8539.49
1389996.2352,2496.29,12279.18,33533.82,32488.97,24372.53,27597.48,12019.68,8553.22
1389996.2372,2025.8,12179.04,33550.41,32510.48,24399.38,27574.92,11879.97,8579.78
1389996.2392,2062.7,12157.82,33582.31,32543.42,24432.47,27594.52,11832.52,8615.88
1389996.2412,2428.39,12171.22,33591.89,32543.81,24435.0,27617.03,11861.33,8620.07
1389996.2432,2904.75,12195.06,33565.48,32502.46,24393.18,27616.55,11925.17,8576.06
1389996.2452,3355.41,12267.92,33561.42,32486.44,24373.68,27645.78,12047.91,8556.27
1389996.2472,3531.89,12336.45,33553.18,32475.43,24360.47,27662.19,12150.72,8539.82
1389996.2492,3316.5,12367.92,33550.98,32477.57,24364.0,27661.04,12176.8,8542.97
1389996.2512,2729.61,12324.48,33546.74,32483.72,24376.63,27626.23,12079.62,8553.17
1389996.2532,2140.9,12217.95,33550.65,32492.36,24393.13,27586.18,11921.84,8568.24
1389996.2552,1981.64,12147.05,33559.47,32503.56,24404.72,27571.63,11815.93,8578.02
1389996.2572,2242.85,12128.02,33560.28,32502.85,24403.72,27586.03,11802.72,8575.82
1389996.2592,2727.94,12171.94,33566.57,32502.8,24401.05,27625.95,11884.5,8574.68
1389996.2612,3236.58,12256.29,33576.92,32509.86,24398.09,27664.66,12018.68,8571.91
1389996.2632,3530.93,12328.72,33561.81,32494.26,24370.82,27689.84,12133.6,8547.02
1389996.2652,3426.89,12354.76,33539.59,32473.52,24350.17,27680.3,12176.99,8527.23
1389996.2672,2958.39,12345.98,33541.73,32486.73,24364.14,27652.74,12132.41,8539.2
1389996.2692,2300.36,12249.61,33543.64,32494.69,24386.08,27607.16,11984.97,8559.37
1389996.2712,1981.35,12161.3,33549.5,32511.14,24404.43,27576.02,11857.75,8579.59
1389996.2732,2117.63,12132.74,33560.95,32527.59,24412.11,27586.27,11824.04,8590.79
1389996.2752,2574.25,12170.98,33581.79,32542.61,24422.46,27634.86,11895.23,8601.09
1389996.2772,3101.83,12250.42,33604.77,32552.96,24430.13,27695.8,12017.54,8606.82
1389996.2792,3499.56,12322.86,33586.32,32527.12,24397.9,27710.63,12128.83,8576.49
1389996.2812,3506.52,12347.37,33552.08,32486.01,24363.19,27684.36,12175.66,8543.78
1389996.2832,3146.79,12338.59,33526.23,32463.36,24346.02,27626.57,12137.94,8526.85
1389996.2852,2470.45,12255.53,33518.03,32456.59,24353.79,27577.83,12011.62,8533.81
1389996.2872,2014.78,12161.49,33529.91,32477.48,24377.35,27552.37,11878.68,8557.13
1389996.2892,2014.97,12124.64,33559.99,32513.19,24406.87,27569.06,11813.21,8586.07
1389996.2912,2403.4,12138.89,33572.44,32520.49,24409.58,27603.34,11844.02,8588.12
1389996.2932,2885.63,12183.38,33570.15,32510.43,24394.8,27640.01,11931.71,8570.72
1389996.2952,3359.84,12250.62,33554.13,32488.49,24367.86,27648.69,12046.24,8542.01
1389996.2972,3511.76,12307.98,33538.06,32469.9,24353.32,27662.28,12143.71,8526.23
1389996.2992,3316.4,12339.55,33529.95,32467.04,24350.12,27658.61,12162.35,8526.37
1389996.3012,2717.07,12302.02,33535.15,32475.0,24366.52,27625.04,12069.37,8546.11
1389996.3032,2166.94,12222.53,33559.66,32506.52,24409.11,27603.77,11937.24,8586.22
1389996.3052,1987.12,12153.1,33578.35,32525.45,24432.85,27582.93,11838.91,8606.72
1389996.3072,2254.25,12125.06,33569.15,32511.1,24415.73,27584.65,11816.79,8589.22
1389996.3092,2701.76,12149.91,33560.28,32494.22,24395.18,27615.93,11888.27,8571.1
1389996.3112,3221.56,12226.44,33562.66,32489.59,24377.4,27647.83,12014.1,8555.27
1389996.3132,3504.04,12307.22,33560.33,32482.53,24368.62,27673.68,12132.26,8545.59
1389996.3152,3448.01,12357.81,33559.04,32488.59,24372.29,27681.12,12189.2,8548.74
1389996.3172,2946.28,12331.06,33536.92,32476.48,24360.85,27636.01,12121.35,8540.11
1389996.3192,2287.67,12222.67,33523.71,32471.61,24365.24,27586.51,11963.7,8545.59
1389996.3212,1948.79,12132.93,33530.1,32483.77,24384.6,27556.33,11830.05,8567.95
1389996.3232,2100.8,12108.14,33550.41,32503.94,24404.62,27567.53,11793.42,8582.5
1389996.3252,2550.27,12147.62,33574.87,32517.96,24418.4,27628.66,11869.72,8588.55
1389996.3272,3074.12,12216.66,33582.6,32516.44,24412.68,27676.39,11987.31,8579.78
1389996.3292,3461.55,12291.39,33567.62,32493.36,24387.55,27683.26,12106.56,8555.17
1389996.3312,3497.89,12336.16,33551.79,32475.43,24371.25,27669.34,12176.94,8542.78
1389996.3332,3160.43,12351.94,33543.88,32474.33,24369.39,27652.41,12161.35,8544.68
1389996.3352,2515.36,12289.1,33559.28,32495.17,24400.05,27617.51,12045.29,8575.58
1389996.3372,2051.4,12188.48,33565.81,32506.85,24419.74,27584.51,11900.71,8592.27
1389996.3392,2009.96,12116.24,33566.05,32507.47,24418.02,27569.34,11808.44,8589.22
1389996.3412,2385.9,12124.92,33572.63,32508.52,24413.83,27604.63,11834.19,8584.07
1389996.3432,2879.86,12172.22,33573.35,32510.62,24405.48,27649.84,11925.17,8575.73
1389996.3452,3368.66,12259.06,33566.86,32502.8,24384.36,27673.87,12053.78,8556.75
1389996.3472,3520.92,12322.76,33560.42,32493.02,24374.39,27676.06,12154.82,8547.02
1389996.3492,3336.1,12358.0,33552.65,32488.25,24373.2,27668.62,12181.86,8545.59
1389996.3512,2729.65,12312.37,33551.98,32493.31,24392.23,27636.44,12087.97,8565.47
1389996.3532,2158.88,12202.65,33549.12,32495.17,24402.91,27585.8,11922.07,8573.87
1389996.3552,1946.64,12113.0,33551.03,32501.51,24406.63,27560.29,11806.58,8579.02
1389996.3572,2241.75,12105.94,33565.91,32512.48,24410.92,27578.6,11798.1,8585.02
1389996.3592,2710.15,12157.25,33589.03,32531.5,24421.6,27626.52,11885.5,8599.0
1389996.3612,3232.19,12227.63,33571.87,32516.67,24390.94,27642.68,11998.7,8568.62
1389996.3632,3474.33,12275.51,33536.82,32475.52,24353.46,27643.92,12095.79,8527.47
1389996.3652,3420.02,12319.23,33525.09,32456.54,24343.68,27647.69,12158.82,8515.88
1389996.3672,2922.73,12302.59,33517.65,32448.49,24353.17,27622.99,12108.47,8523.85
1389996.3692,2307.7,12221.24,33524.99,32460.88,24377.02,27586.61,11972.91,8546.54
1389996.3712,1953.27,12136.56,33542.45,32483.72,24405.67,27572.83,11849.21,8575.58
1389996.3732,2115.2,12119.44,33560.33,32503.51,24418.83,27585.32,11814.45,8587.55
1389996.3752,2528.95,12143.76,33569.72,32505.18,24416.83,27614.02,11869.34,8587.84
1389996.3772,3080.94,12220.77,33580.74,32512.05,24409.96,27660.52,11991.79,8583.93
1389996.3792,3468.28,12308.93,33582.69,32509.76,24405.43,27700.09,12118.48,8576.16
1389996.3812,3518.53,12337.88,33552.41,32480.67,24375.16,27691.56,12179.09,8541.25
1389996.3832,3146.08,12333.68,33531.24,32468.75,24361.99,27649.07,12149.53,8533.43
1389996.3852,2517.65,12269.31,33531.77,32482.34,24377.78,27604.54,12023.74,8551.88
1389996.3872,2029.47,12173.8,33548.17,32502.13,24404.67,27588.9,11886.03,8579.88
1389996.3892,2045.06,12139.23,33586.7,32534.75,24438.53,27611.78,11832.43,8611.16
1389996.3912,2388.62,12136.13,33581.07,32524.45,24428.9,27620.22,11845.73,8602.19
1389996.3932,2882.67,12168.84,33559.33,32499.98,24398.66,27620.56,11922.36,8571.72
1389996.3952,3339.29,12251.66,33550.5,32488.3,24378.68,27645.78,12053.92,8551.74
1389996.3972,3521.16,12317.37,33539.25,32477.43,24362.42,27663.28,12153.01,8536.96
1389996.3992,3315.93,12351.23,33530.76,32476.48,24358.99,27659.28,12176.52,8531.24
1389996.4012,2737.43,12304.21,33526.47,32477.81,24369.67,27625.37,12082.86,8530.9
1389996.4032,2143.38,12202.07,33530.43,32486.39,24384.02,27585.94,11932.66,8548.4
1389996.4052,1966.38,12129.02,33550.89,32508.42,24404.53,27575.64,11829.52,8576.58
1389996.4072,2228.69,12118.2,33558.99,32515.39,24407.82,27586.8,11822.27,8583.69
1389996.4092,2696.47,12146.76,33557.09,32512.33,24391.27,27614.12,11893.56,8577.3
1389996.4112,3206.78,12220.57,33550.93,32497.79,24368.1,27642.68,12011.24,8557.23
1389996.4132,3506.37,12307.12,33549.74,32492.88,24364.24,27675.73,12134.46,8548.64
1389996.4152,3453.35,12365.53,33554.37,32493.55,24372.87,27689.65,12201.93,8555.13
1389996.4172,2971.36,12347.89,33548.88,32488.21,24381.45,27653.65,12143.9,8561.76
1389996.4192,2318.86,12242.94,33540.3,32479.67,24386.22,27597.24,11989.98,8562.38
1389996.4212,1965.24,12143.8,33546.55,32496.89,24403.91,27569.25,11858.89,8578.02
1389996.4232,2112.67,12129.45,33563.81,32525.69,24421.36,27590.66,11828.95,8595.52
1389996.4252,2532.48,12151.24,33573.63,32531.07,24421.12,27632.29,11881.73,8590.79
1389996.4272,3069.02,12217.43,33578.92,32522.01,24407.82,27669.86,11989.79,8574.82
1389996.4292,3458.26,12293.86,33575.35,32505.47,24390.89,27707.48,12108.04,8560.56
1389996.4312,3521.82,12346.7,33555.75,32488.3,24369.53,27720.84,12184.86,8544.73
1389996.4332,3149.89,12339.88,33530.19,32470.42,24352.55,27676.97,12152.01,8534.62
1389996.4352,2507.16,12264.92,33515.98,32464.08,24359.18,27582.6,12024.64,8543.16
1389996.4372,2015.4,12164.45,33528.33,32484.2,24390.46,27550.84,11880.26,8571.34
1389996.4392,2020.31,12131.02,33558.75,32521.2,24418.5,27572.4,11820.46,8599.71
1389996.4412,2376.27,12145.14,33579.26,32531.46,24429.13,27609.64,11856.99,8607.67
1389996.4432,2898.26,12200.88,33587.27,32528.45,24421.41,27654.37,11952.64,8599.23
1389996.4452,3358.51,12273.65,33579.83,32512.86,24401.72,27690.37,12073.8,8578.97
1389996.4472,3531.84,12328.34,33551.17,32485.87,24368.43,27685.03,12159.73,8543.97
1389996.4492,3302.53,12339.78,33529.57,32470.66,24351.17,27650.79,12163.31,8524.47
1389996.4512,2745.34,12312.13,33532.1,32484.54,24369.2,27623.66,12084.77,8543.11
1389996.4532,2157.69,12219.0,33543.78,32501.94,24398.85,27595.24,11946.35,8576.68
1389996.4552,1967.81,12131.36,33538.73,32498.94,24398.04,27560.05,11824.9,8576.11
1389996.4572,2212.48,12121.82,33552.22,32508.28,24404.62,27580.98,11818.08,8582.83
1389996.4592,2709.82,12170.08,33568.29,32517.1,24405.82,27629.33,11903.1,8582.5
1389996.4612,3205.11,12234.21,33558.61,32501.13,24384.41,27656.32,12011.58,8559.94
1389996.4632,3516.82,12315.47,33546.26,32487.11,24366.81,27674.96,12134.36,8545.54
1389996.4652,3447.68,12364.53,33548.31,32497.55,24370.34,27684.22,12199.16,8552.89
1389996.4672,2991.58,12352.37,33543.64,32504.13,24375.87,27655.32,12149.48,8560.37
1389996.4692,2325.15,12252.76,33536.77,32496.03,24383.93,27601.29,11999.47,8565.95
1389996.4712,1990.08,12162.35,33542.3,32505.8,24396.85,27572.44,11862.42,8575.06
1389996.4732,2099.9,12125.3,33550.84,32514.58,24403.81,27577.93,11805.96,8578.92
1389996.4752,2538.59,12151.62,33561.28,32519.2,24404.58,27615.22,11865.95,8574.49
1389996.4772,3043.18,12214.42,33565.38,32516.05,24396.09,27655.51,11982.97,8563.95
1389996.4792,3451.11,12292.34,33550.89,32499.36,24372.06,27676.87,12098.31,8543.06
1389996.4812,3486.01,12335.59,33531.81,32478.57,24352.74,27687.36,12171.17,8528.23
1389996.4832,3175.83,12353.99,33526.71,32477.62,24355.94,27669.24,12162.88,8530.28
1389996.4852,2534.01,12293.72,33537.82,32490.88,24384.12,27630.57,12050.44,8556.03
1389996.4872,2071.29,12196.59,33549.41,32513.19,24406.48,27599.58,11912.73,8580.3
1389996.4892,2033.14,12149.76,33572.11,32533.22,24427.7,27605.01,11841.82,8603.91
1389996.4912,2396.63,12149.76,33575.06,32523.92,24418.26,27619.08,11861.66,8597.04
1389996.4932,2872.18,12189.39,33572.25,32507.33,24402.24,27646.31,11943.06,8581.45
1389996.4952,3355.31,12268.02,33559.9,32487.92,24379.69,27678.21,12064.41,8559.13
1389996.4972,3521.16,12329.15,33544.54,32468.9,24364.43,27700.81,12159.78,8545.69
1389996.4992,3351.59,12365.44,33538.58,32475.86,24363.57,27698.47,12191.15,8547.12
1389996.5012,2761.32,12327.0,33534.29,32486.78,24375.49,27659.37,12102.65,8559.42
1389996.5032,2178.62,12223.2,33536.06,32495.79,24393.13,27604.44,11948.54,8574.58
1389996.5052,1968.67,12142.66,33543.83,32504.75,24401.33,27574.02,11831.19,8582.5
1389996.5072,2236.75,12137.18,33555.85,32516.29,24407.06,27590.66,11825.71,8587.27
1389996.5092,2697.13,12180.0,33566.19,32517.58,24406.01,27628.9,11906.39,8587.65
1389996.5112,3201.29,12239.08,33552.46,32496.41,24381.59,27660.95,12016.35,8561.66
1389996.5132,3494.69,12316.66,33543.26,32483.25,24367.14,27696.85,12131.98,8546.26
1389996.5152,3457.55,12370.3,33548.79,32491.12,24371.82,27715.02,12200.02,8550.36
1389996.5172,2984.57,12350.61,33530.86,32479.81,24366.52,27654.08,12136.89,8546.64
1389996.5192,2332.5,12247.13,33521.47,32476.72,24375.39,27586.75,11985.35,8553.17
1389996.5212,2000.24,12173.46,33550.08,32507.9,24413.02,27578.31,11873.25,8585.6
1389996.5232,2128.6,12147.33,33572.3,32530.22,24432.47,27588.66,11834.58,8600.71
1389996.5252,2559.57,12176.13,33579.16,32533.32,24429.61,27624.04,11891.37,8594.85
1389996.5272,3058.96,12224.68,33568.77,32516.24,24405.77,27656.89,11992.89,8575.2
1389996.5292,3454.3,12298.49,33553.6,32493.69,24376.2,27680.92,12112.48,8551.07
1389996.5312,3501.22,12339.97,33538.3,32474.66,24364.19,27685.17,12179.19,8537.82
1389996.5332,3186.04,12354.9,33529.71,32473.42,24363.09,27662.19,12165.69,8537.58
1389996.5352,2543.93,12292.86,33531.86,32490.45,24378.35,27628.85,12054.49,8559.9
1389996.5372,2082.11,12210.13,33545.5,32514.58,24399.43,27618.08,11925.98,8581.93
1389996.5392,2030.42,12149.24,33553.46,32521.39,24408.58,27623.8,11844.16,8588.65
1389996.5412,2403.35,12160.49,33565.0,32524.07,24411.06,27645.54,11864.19,8588.36
1389996.5432,2870.23,12197.35,33567.58,32508.28,24403.15,27636.34,11942.1,8575.11
1389996.5452,3368.38,12293.53,33577.92,32508.9,24401.48,27670.67,12080.29,8571.58
1389996.5472,3529.36,12349.65,33567.58,32491.59,24388.98,27692.94,12172.41,8559.9
1389996.5492,3337.81,12352.23,33529.81,32459.22,24358.32,27653.27,12167.98,8526.71
1389996.5512,2744.2,12316.75,33533.96,32470.18,24381.4,27624.94,12089.49,8546.26
1389996.5532,2201.46,12242.27,33558.9,32499.08,24420.55,27599.58,11958.41,8583.5
1389996.5552,1980.26,12158.68,33567.1,32513.48,24432.85,27580.79,11841.68,8596.9
1389996.5572,2253.82,12149.0,33569.39,32519.96,24421.55,27600.24,11833.05,8590.37
1389996.5592,2681.45,12170.36,33559.95,32502.13,24397.81,27629.66,11895.71,8568.81
1389996.5612,3204.54,12232.11,33545.4,32479.0,24369.53,27658.7,12010.62,8540.11
1389996.5632,3484.54,12298.87,33539.82,32462.74,24358.08,27678.4,12120.25,8527.9
1389996.5652,3451.25,12339.97,33528.95,32459.55,24345.78,27661.76,12177.09,8517.55
1389996.5672,2969.93,12331.77,33528.71,32473.71,24360.09,27633.34,12130.55,8531.71
1389996.5692,2355.86,12254.05,33534.48,32490.16,24385.6,27595.48,11995.22,8553.7
1389996.5712,1982.16,12163.07,33546.74,32502.8,24409.68,27577.93,11867.0,8575.87
1389996.5732,2139.43,12153.58,33578.78,32529.21,24435.33,27603.92,11837.1,8599.66
1389996.5752,2539.06,12168.74,33580.59,32521.78,24426.18,27634.91,11888.93,8591.75
1389996.5772,3052.81,12213.71,33559.04,32497.79,24392.13,27652.36,11980.2,8557.51
1389996.5792,3433.99,12293.77,33549.5,32486.25,24372.29,27678.83,12099.94,8540.01
1389996.5812,3506.95,12334.87,33529.48,32466.56,24351.08,27679.49,12163.12,8519.22
1389996.5832,3174.88,12347.13,33523.99,32462.08,24345.73,27656.7,12147.62,8517.22
1389996.5852,2558.42,12289.05,33528.28,32476.1,24366.95,27614.17,12042.38,8534.29
1389996.5872,2054.64,12193.16,33528.28,32489.73,24386.5,27577.26,11897.95,8552.65
1389996.5892,2034.71,12145.52,33550.93,32514.81,24411.3,27577.4,11818.46,8566.05
1389996.5912,2386.28,12163.59,33574.16,32530.36,24424.37,27619.89,11856.7,8571.34
1389996.5932,2889.54,12212.18,33579.97,32525.35,24415.54,27660.99,11953.5,8570.48
1389996.5952,3363.23,12292.58,33578.83,32512.62,24402.05,27697.95,12082.63,8567.72
1389996.5972,3582.48,12379.7,33594.66,32528.93,24416.12,27739.58,12206.13,8591.65
1389996.5992,3379.06,12385.37,33561.28,32499.7,24385.17,27702.72,12206.65,8562.85
1389996.6012,2768.09,12302.3,33513.45,32460.45,24354.46,27617.36,12073.66,8527.28
1389996.6032,2168.37,12201.26,33508.3,32464.7,24368.0,27575.07,11928.7,8538.49
1389996.6052,1967.91,12126.97,33521.75,32480.34,24384.93,27561.57,11825.47,8555.03
1389996.6072,2230.07,12127.35,33542.92,32493.31,24393.23,27585.41,11833.57,8562.85
1389996.6092,2691.94,12163.02,33556.75,32495.69,24391.84,27623.94,11905.72,8560.37
1389996.6112,3216.51,12248.18,33567.19,32495.69,24388.84,27669.58,12036.9,8559.66
1389996.6132,3515.67,12320.28,33556.75,32479.29,24374.39,27694.04,12146.0,8545.3
1389996.6152,3469.32,12368.11,33549.17,32477.38,24368.1,27701.62,12206.84,8537.44
1389996.6172,3027.77,12371.92,33560.18,32502.66,24389.32,27688.17,12167.26,8557.56
1389996.6192,2402.21,12295.25,33568.15,32517.96,24412.78,27656.61,12035.18,8581.35
1389996.6212,2020.65,12190.53,33569.53,32524.54,24427.85,27613.55,11897.37,8592.56
1389996.6232,2116.49,12137.03,33557.8,32513.34,24411.59,27584.46,11828.14,8573.1
1389996.6252,2513.55,12145.9,33557.09,32499.84,24395.71,27616.41,11866.71,8561.33
1389996.6272,3049.9,12220.24,33571.1,32504.13,24394.23,27670.29,11986.07,8562.66
1389996.6292,3461.08,12313.22,33582.21,32513.81,24395.56,27718.69,12125.26,8563.0
1389996.6312,3543.66,12366.68,33567.15,32505.56,24379.16,27722.03,12208.13,8546.16
1389996.6332,3198.91,12363.63,33543.88,32491.5,24366.91,27666.24,12170.98,8534.48
1389996.6352,2565.43,12291.0,33530.05,32482.63,24370.67,27610.02,12045.43,8536.44
1389996.6372,2065.13,12192.06,33545.31,32497.55,24399.95,27592.33,11908.39,8563.33
1389996.6392,2053.07,12156.34,33572.58,32522.54,24426.08,27610.69,11850.45,8587.36
1389996.6412,2391.29,12157.44,33586.08,32526.07,24430.85,27634.29,11873.77,8588.03
1389996.6432,2895.5,12207.65,33588.7,32520.82,24423.08,27671.91,11961.03,8577.92
1389996.6452,3334.43,12262.44,33559.28,32490.88,24384.6,27674.92,12059.83,8543.06
1389996.6472,3525.4,12316.75,33538.49,32468.8,24357.7,27680.78,12147.95,8518.74
1389996.6492,3340.05,12342.36,33525.95,32464.89,24347.88,27675.06,12175.23,8512.45
1389996.6512,2785.11,12310.65,33519.08,32469.71,24353.89,27637.44,12090.11,8521.37
1389996.6532,2177.43,12212.66,33526.09,32480.29,24379.92,27585.89,11943.87,8543.54
1389996.6552,1989.89,12151.34,33543.73,32498.13,24402.29,27562.62,11843.54,8568.19
1389996.6572,2227.74,12138.75,33561.23,32507.28,24411.49,27595.81,11838.49,8578.64
1389996.6592,2717.54,12187.53,33584.5,32519.01,24418.26,27651.69,11926.99,8584.55
1389996.6612,3215.74,12256.58,33583.55,32507.95,24403.96,27693.7,12044.86,8572.2
1389996.6632,3524.92,12321.76,33565.53,32485.3,24377.59,27702.29,12150.05,8541.25
1389996.6652,3448.77,12344.84,33540.06,32465.37,24356.37,27680.3,12189.34,8521.03
1389996.6672,3019.71,12338.93,33530.05,32464.56,24354.22,27652.89,12146.14,8522.08
1389996.6692,2358.06,12250.47,33528.19,32469.09,24370.15,27613.45,12001.66,8537.1
1389996.6712,2015.78,12170.6,33547.93,32496.03,24399.05,27600.96,11875.54,8563.52
1389996.6732,2139.95,12169.41,33593.61,32539.85,24437.81,27637.1,11858.51,8601.71
1389996.6752,2581.64,12201.45,33611.59,32552.06,24445.73,27666.72,11926.46,8608.39
1389996.6772,3057.05,12233.69,33589.46,32521.44,24415.4,27677.44,12009.62,8577.97
1389996.6792,3477.62,12316.37,33583.45,32510.19,24399.24,27714.45,12131.98,8563.0
1389996.6812,3547.0,12379.5,33585.27,32506.47,24400.14,27743.87,12225.34,8562.52
1389996.6832,3261.47,12398.91,33580.26,32510.19,24400.62,27727.46,12217.43,8562.52
1389996.6852,2607.73,12325.43,33573.06,32507.04,24405.29,27669.62,12090.49,8570.86
1389996.6872,2116.39,12219.19,33573.58,32514.86,24419.79,27624.13,11939.67,8583.5
1389996.6892,2041.58,12156.63,33578.21,32525.45,24430.95,27612.21,11852.93,8593.51
1389996.6912,2408.03,12166.79,33592.18,32538.37,24439.29,27639.87,11875.11,8597.47
1389996.6932,2881.48,12210.75,33591.7,32528.26,24427.13,27668.43,11957.12,8579.68
1389996.6952,3363.99,12284.33,33583.45,32512.33,24403.29,27691.08,12069.85,8555.03
1389996.6972,3526.5,12334.11,33559.76,32484.2,24375.87,27687.93,12153.72,8527.8
1389996.6992,3373.91,12373.78,33556.94,32486.73,24377.73,27679.83,12185.86,8533.67
1389996.7012,2818.73,12358.62,33572.96,32511.29,24410.25,27664.28,12123.68,8568.05
1389996.7032,2228.16,12257.63,33568.62,32512.48,24419.79,27616.36,11972.1,8581.31
1389996.7052,1993.61,12168.36,33566.53,32516.63,24423.7,27585.61,11847.93,8586.6
1389996.7072,2230.55,12138.46,33561.14,32507.71,24409.73,27578.98,11826.04,8573.2
1389996.7093,2669.62,12160.49,33551.79,32491.74,24387.74,27598.77,11885.31,8553.32
1389996.7113,3181.65,12229.44,33554.84,32485.3,24376.35,27632.67,11991.93,8542.35
1389996.7133,3490.69,12307.79,33548.88,32470.37,24359.61,27662.33,12112.67,8527.52
1389996.7153,3441.86,12339.74,33535.01,32463.84,24346.78,27660.04,12159.54,8516.12
1389996.7173,2999.69,12332.01,33528.28,32471.23,24353.75,27626.66,12111.86,8522.89
