TimeStamp,P3,P4,F3,F4,FP1,I1,I2,FP2
1390104.142,1433.9,10928.01,32627.49,31376.03,23911.91,26890.47,10835.08,8649.73
1390104.144,1852.04,10953.71,32632.21,31373.46,23912.05,26927.52,10887.48,8643.49
1390104.146,2384.09,11035.21,32633.26,31371.22,23897.94,26965.0,11001.97,8625.65
1390104.148,2713.2,11117.84,32623.68,31355.29,23877.24,26982.74,11117.41,8603.67
1390104.15,2723.88,11162.57,32601.22,31334.5,23857.79,26970.2,11172.49,8588.46
1390104.152,2291.35,11151.7,32588.68,31329.73,23855.69,26934.29,11129.91,8592.75
1390104.154,1666.93,11066.72,32591.39,31343.37,23878.77,26911.64,11007.69,8618.4
1390104.156,1235.34,10957.39,32602.93,31360.06,23902.09,26870.87,10868.26,8641.86
1390104.158,1311.21,10918.38,32619.86,31378.8,23914.91,26872.54,10817.96,8652.07
1390104.16,1686.86,10935.4,32621.15,31374.79,23912.0,26890.61,10854.91,8644.77
1390104.162,2208.66,11002.45,32621.58,31368.59,23897.41,26923.52,10947.18,8631.14
1390104.164,2631.76,11091.04,32608.37,31349.57,23872.19,26956.61,11070.68,8608.29
1390104.166,2767.13,11153.27,32590.3,31335.64,23854.64,26953.61,11165.24,8591.08
1390104.168,2483.03,11176.4,32584.72,31337.26,23855.59,26931.67,11168.86,8594.18
1390104.17,1871.78,11109.31,32581.14,31336.5,23868.52,26883.8,11051.37,8603.62
1390104.172,1330.38,10998.63,32585.0,31340.65,23886.25,26854.61,10908.13,8619.21
1390104.174,1224.23,10927.11,32599.17,31358.53,23899.7,26860.19,10824.25,8628.8
1390104.176,1536.8,10923.2,32608.94,31363.54,23899.03,26898.91,10838.56,8625.13
1390104.178,2034.62,10975.08,32622.1,31368.4,23895.93,26951.75,10925.91,8624.55
1390104.18,2533.1,11069.35,32624.3,31363.68,23880.63,26981.83,11052.28,8610.44
1390104.182,2766.9,11141.68,32611.56,31342.46,23860.84,26988.94,11158.37,8592.56
1390104.184,2641.54,11179.93,32600.45,31330.49,23855.12,26974.49,11192.28,8585.41
1390104.186,2103.71,11141.83,32591.35,31326.44,23860.41,26931.19,11110.74,8591.84
1390104.188,1487.92,11038.45,32592.97,31339.46,23881.1,26884.03,10967.54,8611.73
1390104.19,1203.3,10939.31,32598.45,31352.81,23898.99,26863.48,10845.57,8631.9
1390104.192,1420.21,10924.25,32609.56,31361.39,23908.9,26897.0,10827.45,8645.68
1390104.194,1861.62,10952.19,32612.71,31356.15,23898.6,26936.25,10883.48,8635.9
1390104.196,2370.26,11026.57,32602.36,31337.31,23869.33,26958.23,10987.95,8609.34
1390104.198,2717.07,11119.89,32596.74,31328.01,23855.78,26981.55,11119.8,8594.9
1390104.2,2740.34,11184.46,32590.35,31325.3,23849.44,26999.76,11201.57,8587.98
1390104.202,2307.8,11164.62,32574.09,31312.04,23841.96,26958.14,11151.6,8580.49
1390104.204,1669.41,11077.07,32577.47,31318.76,23864.22,26911.79,11017.47,8601.86
1390104.206,1263.05,10987.24,32608.99,31357.86,23908.38,26898.34,10887.29,8642.63
1390104.208,1336.53,10948.56,32628.21,31382.56,23921.78,26898.58,10832.02,8655.26
1390104.21,1696.78,10944.99,32622.82,31375.13,23905.09,26905.97,10862.88,8639.1
1390104.212,2212.48,11006.02,32617.0,31361.58,23884.2,26944.02,10960.87,8618.78
1390104.214,2638.86,11092.14,32604.89,31342.18,23863.51,26973.58,11082.36,8598.14
1390104.216,2773.86,11163.38,32592.44,31331.26,23850.83,26984.17,11176.49,8586.55
1390104.218,2485.9,11179.64,32584.62,31327.78,23848.25,26944.55,11176.25,8585.07
1390104.22,1892.23,11127.38,32585.96,31341.89,23863.03,26903.3,11078.26,8605.1
1390104.222,1342.92,11015.04,32596.12,31358.2,23888.4,26882.79,10934.31,8629.56
1390104.224,1244.35,10951.66,32615.76,31376.84,23909.05,26881.98,10847.47,8651.73
1390104.226,1549.24,10950.28,32632.07,31386.47,23918.54,26909.26,10861.4,8658.84
1390104.228,2042.15,10994.82,32628.49,31374.65,23901.32,26943.26,10946.85,8638.76
1390104.23,2516.99,11075.55,32616.81,31359.44,23877.24,26978.83,11067.87,8615.64
1390104.232,2771.52,11151.74,32600.88,31347.23,23853.16,27006.01,11166.14,8592.18
1390104.234,2626.32,11177.45,32585.29,31330.78,23838.38,27001.62,11193.18,8573.2
1390104.236,2111.77,11142.54,32578.76,31328.63,23842.72,26974.16,11123.09,8579.16
1390104.238,1468.8,11030.25,32579.09,31329.92,23861.7,26911.79,10971.26,8598.81
1390104.24,1202.49,10941.79,32592.44,31350.09,23883.73,26867.92,10846.38,8622.03
1390104.242,1392.51,10924.63,32609.51,31369.36,23900.7,26876.79,10828.16,8641.2
1390104.244,1863.34,10963.11,32621.67,31373.46,23897.79,26922.42,10897.35,8641.39
1390104.246,2361.97,11033.77,32621.05,31366.59,23880.91,26965.62,11009.89,8624.98
1390104.248,2730.27,11123.61,32603.65,31351.67,23856.12,26995.47,11134.39,8599.9
1390104.25,2718.83,11173.11,32589.15,31341.13,23846.25,27001.34,11199.38,8588.65
1390104.252,2338.51,11172.39,32582.38,31339.6,23851.06,26979.07,11168.91,8592.61
1390104.254,1676.61,11085.61,32584.81,31340.65,23872.04,26933.82,11039.54,8615.26
1390104.256,1273.2,10984.8,32600.12,31357.48,23899.27,26898.63,10906.13,8639.05
1390104.258,1300.19,10930.01,32611.09,31365.92,23905.76,26893.81,10835.7,8641.91
1390104.26,1700.16,10944.94,32620.86,31368.21,23899.94,26922.37,10870.7,8636.38
1390104.262,2204.56,11014.27,32624.06,31369.21,23891.98,26969.91,10980.99,8629.75
1390104.264,2672.39,11116.08,32617.24,31364.83,23876.24,27012.78,11115.08,8616.97
1390104.266,2789.78,11182.6,32608.47,31352.24,23865.8,27041.58,11210.92,8607.77
1390104.268,2550.03,11214.07,32610.71,31359.53,23870.66,27038.91,11225.42,8614.21
1390104.27,1917.84,11143.97,32602.84,31354.0,23879.48,26983.74,11108.92,8621.84
1390104.272,1377.77,11016.75,32594.64,31355.34,23888.26,26906.54,10943.46,8628.85
1390104.274,1228.05,10932.92,32598.79,31364.97,23891.69,26878.07,10839.03,8635.43
1390104.276,1553.25,10928.35,32612.23,31373.17,23892.6,26901.63,10847.14,8637.38
1390104.278,2036.0,10981.47,32620.58,31372.5,23888.26,26945.36,10939.07,8632.14
1390104.28,2539.35,11071.16,32615.09,31359.87,23866.8,26981.69,11063.34,8612.49
1390104.282,2781.3,11151.7,32603.55,31340.75,23849.2,27007.77,11174.73,8595.23
1390104.284,2669.29,11186.51,32597.21,31334.83,23843.43,27007.2,11215.31,8588.46
1390104.286,2127.36,11148.45,32581.05,31325.34,23840.1,26963.05,11137.53,8586.93
1390104.288,1504.85,11039.64,32588.58,31333.69,23864.42,26913.69,10987.43,8606.48
1390104.29,1229.48,10951.9,32607.85,31353.14,23888.69,26893.81,10866.83,8630.13
1390104.292,1429.22,10931.06,32625.35,31369.88,23898.99,26917.32,10843.99,8640.67
1390104.294,1870.44,10968.35,32628.68,31369.64,23893.17,26956.28,10912.18,8633.76
1390104.296,2384.14,11043.5,32628.11,31365.16,23883.82,26997.95,11028.34,8624.94
1390104.298,2748.68,11135.53,32621.77,31357.86,23869.9,27022.27,11154.65,8612.06
1390104.3,2751.4,11184.36,32609.28,31347.71,23859.55,27019.17,11224.51,8601.24
1390104.302,2349.38,11188.51,32604.03,31349.0,23860.93,26997.33,11195.8,8602.81
1390104.304,1695.06,11093.62,32604.41,31355.19,23878.91,26951.6,11057.24,8620.93
1390104.306,1282.12,10990.57,32616.76,31369.02,23900.7,26919.32,10920.1,8644.58
1390104.308,1312.78,10940.08,32633.31,31386.76,23915.48,26917.99,10856.34,8658.98
1390104.31,1715.71,10960.29,32641.75,31392.63,23912.96,26945.07,10896.06,8656.88
1390104.312,2210.81,11018.61,32644.47,31384.38,23900.18,26980.5,10991.77,8645.25
1390104.314,2663.61,11107.59,32626.01,31358.06,23869.66,27000.53,11109.35,8613.06
1390104.316,2766.7,11159.71,32605.51,31337.46,23851.59,27005.44,11185.89,8587.74
1390104.318,2520.85,11180.83,32588.77,31337.46,23841.53,26988.41,11191.18,8578.59
1390104.32,1887.89,11118.27,32586.34,31344.85,23855.88,26950.08,11083.18,8596.18
1390104.322,1372.77,11022.95,32603.17,31358.82,23888.07,26925.52,10951.23,8627.61
1390104.324,1231.77,10948.23,32619.91,31369.69,23907.47,26909.59,10856.68,8645.54
1390104.326,1572.32,10956.67,32638.55,31381.28,23914.72,26933.53,10867.79,8654.69
1390104.328,2042.82,11008.79,32650.05,31388.24,23912.62,26989.22,10959.58,8653.36
1390104.33,2548.89,11094.19,32640.51,31374.65,23883.2,27028.61,11081.27,8626.37
1390104.332,2783.11,11169.96,32633.59,31361.25,23866.37,27034.24,11184.36,8611.01
1390104.334,2683.21,11210.54,32616.52,31353.95,23854.69,27009.68,11222.89,8599.33
1390104.336,2120.54,11159.8,32592.49,31341.6,23847.77,26959.33,11133.62,8591.27
1390104.338,1517.25,11056.19,32597.93,31353.05,23868.75,26914.08,10989.57,8611.73
1390104.34,1214.55,10963.25,32617.95,31372.12,23895.36,26896.29,10869.03,8638.72
1390104.342,1426.08,10938.98,32622.72,31376.22,23893.79,26908.93,10835.98,8640.0
1390104.344,1844.55,10971.74,32626.92,31366.11,23893.88,26945.02,10897.64,8638.53
1390104.346,2397.92,11064.44,32634.79,31370.79,23889.69,26988.56,11030.15,8635.14
1390104.348,2738.14,11149.22,32624.39,31356.58,23869.66,27002.24,11148.74,8616.54
1390104.35,2761.94,11197.71,32604.89,31339.08,23850.73,27008.73,11214.78,8597.28
1390104.352,2343.65,11186.79,32597.21,31331.97,23854.21,26975.87,11174.63,8597.57
1390104.354,1723.62,11102.87,32605.46,31346.75,23879.29,26934.63,11042.98,8621.55
1390104.356,1272.34,10987.0,32602.6,31351.28,23890.5,26897.82,10895.87,8632.99
1390104.358,1313.73,10935.83,32610.94,31364.4,23897.75,26901.53,10826.49,8639.81
1390104.36,1689.96,10949.99,32618.91,31366.64,23896.6,26939.82,10865.98,8635.33
1390104.362,2219.63,11023.43,32626.44,31369.98,23887.11,26985.08,10978.27,8629.85
1390104.364,2650.88,11114.26,32618.05,31357.96,23868.71,26999.24,11105.25,8611.87
1390104.366,2785.78,11173.34,32603.27,31341.18,23852.92,27009.87,11189.89,8593.85
1390104.368,2518.84,11191.56,32594.49,31336.36,23847.87,26986.75,11185.27,8590.17
1390104.37,1918.32,11135.58,32598.83,31346.47,23864.18,26947.26,11082.75,8608.58
1390104.372,1370.29,11025.24,32608.94,31356.1,23889.02,26919.03,10943.32,8630.09
1390104.374,1250.08,10947.9,32623.82,31371.6,23907.24,26905.73,10845.66,8647.87
1390104.376,1559.88,10949.42,32634.31,31376.79,23909.38,26931.58,10857.2,8649.49
1390104.378,2036.38,10992.48,32633.21,31368.93,23895.12,26956.28,10932.45,8632.61
1390104.38,2528.33,11083.03,32629.83,31358.29,23875.81,26999.29,11060.1,8614.68
1390104.382,2780.15,11157.23,32616.29,31341.22,23854.07,27032.76,11173.15,8593.13
1390104.384,2673.53,11199.28,32611.18,31340.84,23849.39,27037.34,11210.73,8589.6
1390104.386,2145.29,11162.43,32608.13,31341.56,23860.6,26981.31,11134.05,8599.33
1390104.388,1527.5,11059.43,32612.47,31347.18,23884.44,26924.71,10991.72,8617.12
1390104.39,1233.01,10966.21,32625.73,31368.74,23909.95,26891.66,10865.78,8638.81
1390104.392,1431.47,10947.28,32639.27,31379.85,23918.54,26908.45,10842.71,8646.82
1390104.394,1863.58,10979.32,32646.9,31386.71,23915.72,26949.79,10913.13,8648.92
1390104.396,2389.48,11057.09,32636.07,31378.23,23894.6,26984.74,11022.62,8631.71
1390104.398,2735.9,11138.3,32623.1,31359.01,23869.47,27010.01,11131.38,8610.34
1390104.4,2754.64,11193.94,32611.52,31340.51,23857.93,27016.79,11198.71,8598.95
1390104.402,2343.56,11182.69,32598.79,31334.07,23855.83,26988.56,11162.62,8598.14
1390104.404,1706.65,11095.24,32592.11,31335.55,23867.51,26945.55,11038.11,8612.06
1390104.406,1262.52,10982.9,32602.84,31349.33,23888.64,26913.07,10896.16,8634.43
1390104.408,1309.54,10941.46,32625.35,31367.73,23905.18,26910.88,10840.46,8649.59
1390104.41,1693.3,10957.39,32639.13,31376.51,23913.1,26943.26,10880.85,8653.93
1390104.412,2228.12,11034.16,32648.52,31382.14,23912.58,26988.8,10984.66,8651.21
1390104.414,2658.32,11120.51,32642.08,31373.98,23895.89,27023.46,11100.06,8634.62
1390104.416,2795.41,11179.88,32618.0,31352.52,23869.37,27033.14,11192.37,8610.06
1390104.418,2525.04,11188.84,32602.93,31342.41,23857.07,27016.31,11194.61,8598.33
1390104.42,1924.32,11124.09,32589.11,31339.12,23858.45,26958.95,11079.5,8599.38
1390104.422,1363.18,11009.27,32594.92,31352.81,23880.72,26926.52,10932.83,8620.64
1390104.424,1262.71,10951.33,32618.57,31375.32,23906.85,26939.25,10854.44,8647.87
1390104.426,1554.16,10945.8,32629.73,31375.55,23911.38,26953.37,10854.15,8653.36
1390104.428,2044.01,10994.53,32634.07,31367.11,23895.55,26975.68,10937.88,8638.91
1390104.43,2528.72,11075.26,32631.73,31354.48,23877.77,27007.92,11060.91,8622.7
1390104.432,2807.14,11159.61,32628.49,31350.66,23866.99,27031.81,11176.25,8613.92
1390104.434,2679.35,11195.09,32622.15,31350.52,23863.22,27022.89,11213.35,8610.54
1390104.436,2162.36,11158.52,32605.13,31346.71,23858.93,26983.17,11138.73,8607.01
1390104.438,1522.45,11041.4,32586.63,31342.89,23866.56,26927.95,10982.99,8611.58
1390104.44,1246.64,10952.62,32596.74,31358.87,23886.3,26896.43,10871.7,8627.13
1390104.442,1401.23,10919.62,32605.6,31357.01,23890.64,26891.43,10833.03,8627.22
1390104.444,1850.32,10947.42,32614.71,31355.43,23886.25,26930.0,10890.49,8627.37
1390104.446,2360.15,11024.38,32622.87,31356.62,23880.58,26988.7,11013.46,8625.41
1390104.448,2741.38,11116.46,32620.72,31347.37,23862.32,27012.4,11139.49,8607.96
1390104.45,2734.23,11164.67,32610.32,31332.78,23848.11,27003.05,11199.43,8596.99
1390104.452,2360.68,11170.82,32603.17,31333.35,23848.54,26973.92,11173.06,8598.04
1390104.454,1701.16,11079.5,32593.64,31333.07,23861.22,26918.32,11036.54,8612.2
1390104.456,1283.6,10978.65,32607.75,31354.57,23891.07,26896.05,10901.26,8638.91
1390104.458,1305.44,10939.55,32635.36,31381.56,23918.06,26917.79,10846.38,8660.37
1390104.46,1708.89,10960.1,32646.47,31390.81,23919.2,26964.72,10881.85,8663.61
1390104.462,2190.21,11009.27,32636.07,31379.42,23896.12,27007.25,10972.07,8644.82
1390104.464,2641.39,11095.67,32623.29,31359.06,23867.8,27024.8,11095.81,8618.4
1390104.466,2765.7,11150.55,32606.75,31331.88,23849.39,27032.81,11180.07,8597.18
1390104.468,2533.82,11174.58,32601.74,31334.88,23851.21,26997.76,11186.89,8599.66
1390104.47,1918.13,11113.79,32600.84,31340.7,23867.85,26938.97,11087.9,8615.78
1390104.472,1378.68,10998.06,32595.88,31343.89,23883.06,26878.26,10936.83,8629.32
1390104.474,1235.15,10924.91,32606.94,31351.95,23898.03,26868.87,10840.13,8641.53
1390104.476,1544.71,10920.43,32620.86,31356.05,23901.18,26911.45,10847.24,8643.01
1390104.478,2011.39,10970.55,32629.4,31359.72,23894.98,26963.05,10929.92,8635.81
1390104.48,2518.94,11059.81,32625.58,31357.48,23875.33,27006.77,11054.95,8617.12
1390104.482,2764.13,11132.81,32600.74,31335.64,23847.58,27015.45,11169.29,8593.13
1390104.484,2654.84,11165.86,32584.43,31331.73,23839.52,26980.69,11192.9,8582.97
1390104.486,2138.28,11138.63,32579.71,31334.31,23844.82,26935.63,11117.17,8588.27
1390104.488,1528.45,11041.64,32595.78,31350.28,23867.8,26910.17,10985.8,8615.4
1390104.49,1234.91,10955.62,32615.86,31369.59,23891.17,26898.86,10871.36,8643.44
1390104.492,1416.92,10931.78,32633.02,31382.04,23907.09,26922.75,10850.57,8660.13
1390104.494,1855.23,10962.54,32636.22,31370.31,23904.28,26951.03,10903.55,8654.79
1390104.496,2356.72,11031.72,32632.31,31360.2,23888.16,26975.35,11001.64,8639.62
1390104.498,2721.69,11123.42,32619.86,31354.1,23871.33,27003.43,11126.23,8619.45
1390104.5,2736.71,11178.78,32610.37,31349.0,23861.51,27020.65,11206.29,8609.73
1390104.502,2366.07,11187.94,32603.17,31351.95,23859.74,26988.89,11178.69,8612.54
1390104.504,1724.15,11096.86,32601.31,31352.81,23874.33,26966.86,11052.56,8625.32
1390104.506,1307.77,10995.68,32619.91,31371.69,23898.37,26960.28,10919.62,8646.39
1390104.508,1314.21,10931.02,32633.79,31384.61,23909.52,26925.42,10821.68,8656.69
1390104.51,1707.6,10949.57,32645.75,31394.91,23913.34,26945.88,10852.43,8657.69
1390104.512,2193.07,11010.03,32648.19,31393.44,23899.7,26975.83,10951.95,8645.96
1390104.514,2654.27,11100.77,32637.74,31374.51,23874.0,26978.45,11084.22,8614.45
1390104.516,2777.72,11156.04,32620.86,31352.33,23855.26,27015.78,11177.11,8586.6
1390104.518,2549.12,11181.26,32607.56,31343.89,23847.73,27017.74,11182.45,8581.54
1390104.52,1929.62,11122.32,32611.09,31350.33,23865.51,26992.51,11084.03,8604.81
1390104.522,1411.58,11019.95,32624.39,31368.45,23887.06,26920.51,10945.32,8638.96
1390104.524,1242.97,10934.74,32632.83,31377.99,23900.13,26855.52,10829.97,8659.6
1390104.526,1552.68,10932.59,32630.97,31370.83,23894.69,26855.81,10839.51,8654.64
1390104.528,2009.2,10979.08,32631.59,31358.63,23883.2,26897.48,10916.38,8640.0
1390104.53,2529.86,11074.59,32630.35,31352.48,23865.65,26948.12,11040.4,8621.07
1390104.532,2761.36,11139.82,32604.89,31330.11,23845.34,26986.17,11151.12,8596.56
1390104.534,2673.48,11181.26,32591.01,31334.55,23848.58,26983.31,11196.61,8598.38
1390104.536,2130.13,11145.16,32583.15,31340.22,23870.47,26938.01,11124.8,8618.5
1390104.538,1532.94,11041.79,32582.86,31341.7,23895.65,26889.57,10978.65,8642.01
1390104.54,1217.32,10948.71,32603.55,31365.59,23923.45,26876.02,10861.83,8670.19
1390104.542,1427.22,10939.69,32632.4,31397.3,23939.33,26898.67,10841.9,8683.06
1390104.544,1847.98,10973.65,32650.43,31405.83,23939.28,26933.77,10899.45,8673.86
1390104.546,2387.71,11054.33,32664.26,31408.7,23924.54,26980.36,11017.42,8672.29
1390104.548,2735.57,11140.16,32669.79,31397.68,23902.09,27017.17,11145.45,8656.46
1390104.55,2771.28,11190.37,32662.63,31386.81,23887.3,27018.98,11203.29,8626.61
1390104.552,2373.08,11189.22,32644.66,31400.16,23892.64,27000.29,11176.78,8612.06
1390104.554,1756.1,11114.79,32645.09,31424.62,23918.06,26969.87,11053.75,8647.49
1390104.556,1307.44,11008.41,32658.34,31449.08,23946.86,26934.05,10913.9,8688.64
1390104.558,1343.2,10958.86,32674.51,31472.5,23962.26,26924.95,10849.62,8706.71
1390104.56,1711.7,10974.6,32686.38,31473.21,23969.56,26960.47,10892.3,8714.1
1390104.562,2218.77,11027.34,32682.76,31454.57,23963.74,26986.17,10988.95,8709.29
1390104.564,2647.45,11107.49,32664.35,31413.08,23937.85,26996.9,11103.92,8674.05
1390104.566,2804.8,11179.88,32654.58,31391.43,23934.27,27023.22,11204.72,8657.03
1390104.568,2556.23,11201.76,32641.61,31388.1,23936.23,27000.57,11213.59,8652.93
1390104.57,1965.67,11142.02,32641.94,31395.96,23954.11,26956.61,11116.08,8678.87
1390104.572,1419.21,11041.83,32661.82,31423.76,23976.95,26934.67,10976.75,8730.13
1390104.574,1285.36,10970.5,32686.81,31446.56,23989.01,26937.54,10873.75,8760.21
1390104.576,1570.84,10965.35,32694.49,31452.33,23997.21,26966.48,10875.42,8743.67
1390104.578,2044.15,11007.83,32692.29,31457.67,24000.12,26998.0,10949.47,8710.67
1390104.58,2539.68,11094.95,32681.71,31441.6,23987.11,27007.73,11071.49,8706.52
1390104.582,2799.32,11177.83,32661.06,31416.32,23968.79,27022.13,11187.75,8690.41
1390104.584,2713.73,11230.42,32655.72,31416.23,23961.69,27019.98,11235.86,8696.65
1390104.586,2198.51,11195.99,32643.94,31409.51,23963.79,26987.6,11163.28,8713.2
1390104.588,1579.76,11091.52,32645.13,31416.71,23979.48,26951.98,11024.0,8719.92
1390104.59,1267.1,10988.76,32663.68,31439.98,23994.16,26928.33,10901.5,8713.63
1390104.592,1443.1,10962.54,32679.47,31435.25,23996.93,26944.35,10876.56,8708.38
1390104.594,1869.34,10994.15,32689.19,31431.49,23998.93,26989.65,10938.65,8732.22
1390104.596,2397.82,11074.45,32690.62,31430.68,23992.83,27022.7,11044.65,8740.47
1390104.598,2745.06,11147.36,32670.93,31404.45,23962.93,27004.2,11144.73,8707.38
1390104.6,2781.82,11205.34,32652.38,31388.33,23941.04,27023.22,11215.59,8685.54
1390104.602,2400.64,11207.15,32646.95,31381.8,23947.67,27013.69,11190.65,8699.94
1390104.604,1776.79,11127.47,32640.41,31378.7,23965.03,26960.14,11068.01,8720.3
1390104.606,1314.26,11009.74,32646.33,31382.47,23983.82,26921.51,10922.53,8735.23
1390104.608,1341.2,10961.44,32663.4,31400.11,23996.31,26917.03,10859.63,8744.34
1390104.61,1703.79,10972.64,32672.7,31414.04,23994.64,26938.82,10893.78,8744.57
1390104.612,2223.11,11039.93,32678.18,31419.42,23985.48,26982.74,11002.3,8733.7
1390104.614,2660.99,11128.05,32671.36,31413.94,23966.65,27018.84,11122.18,8717.78
1390104.616,2813.63,11191.51,32647.8,31393.82,23945.0,27028.75,11206.58,8690.07
1390104.618,2554.85,11207.15,32633.64,31381.9,23938.8,27006.1,11204.05,8675.39
1390104.62,1973.1,11158.37,32637.79,31388.33,23953.35,26968.34,11105.73,8688.12
1390104.622,1406.86,11043.84,32645.13,31402.5,23976.0,26929.72,10960.53,8713.68
1390104.624,1269.15,10969.93,32657.05,31423.67,23987.63,26913.79,10861.06,8727.12
1390104.626,1544.76,10964.78,32670.93,31431.39,23988.06,26938.01,10865.5,8732.61
1390104.628,2031.04,11015.99,32678.56,31423.38,23976.28,26972.15,10951.42,8722.69
1390104.63,2520.99,11102.87,32675.99,31409.74,23963.74,27010.4,11077.45,8706.62
1390104.632,2810.19,11186.98,32668.21,31400.88,23944.81,27040.44,11192.94,8689.6
1390104.634,2687.41,11219.12,32646.8,31380.94,23927.26,27026.75,11216.4,8671.62
1390104.636,2192.93,11194.04,32636.5,31375.27,23927.02,26984.65,11152.27,8668.61
1390104.638,1550.29,11086.42,32635.74,31385.38,23943.24,26943.83,11012.94,8684.3
1390104.64,1258.99,10994.48,32643.27,31405.55,23964.22,26928.57,10897.35,8691.93
1390104.642,1412.3,10968.02,32660.3,31424.91,23978.19,26932.77,10863.35,8705.0
1390104.644,1859.38,10999.92,32668.26,31435.06,23974.14,26969.15,10921.86,8711.05
1390104.646,2361.97,11070.73,32670.6,31429.49,23961.31,27008.73,11034.16,8699.66
1390104.648,2756.88,11166.38,32668.74,31410.51,23948.77,27040.39,11160.61,8676.58
1390104.65,2775.24,11219.31,32660.01,31388.38,23938.18,27052.36,11235.52,8669.33
1390104.652,2416.85,11223.22,32654.91,31384.66,23937.13,27028.18,11208.82,8675.96
1390104.654,1748.23,11128.86,32643.13,31383.18,23942.57,26974.4,11072.06,8686.02
1390104.656,1311.73,11018.95,32641.03,31398.49,23957.59,26941.83,10934.31,8702.23
1390104.658,1311.59,10967.3,32654.72,31412.27,23971.56,26935.63,10869.31,8717.59
1390104.66,1704.74,10985.61,32664.73,31415.61,23967.79,26961.33,10914.18,8713.63
1390104.662,2191.4,11044.12,32666.97,31409.65,23952.68,27004.63,11010.03,8695.08
1390104.664,2654.6,11135.72,32660.73,31403.4,23933.75,27025.89,11128.28,8678.58
1390104.666,2794.27,11194.95,32638.12,31381.56,23911.53,27033.28,11216.69,8658.22
1390104.668,2572.44,11212.73,32621.91,31370.93,23899.42,27017.88,11225.89,8648.83
1390104.67,1962.33,11153.46,32614.81,31369.02,23909.67,26979.64,11129.43,8661.32
1390104.672,1422.79,11048.56,32625.15,31382.18,23938.13,26956.04,10993.05,8683.68
1390104.674,1262.66,10977.75,32644.09,31407.69,23963.93,26939.44,10890.96,8706.24
1390104.676,1561.78,10977.65,32659.44,31419.95,23970.61,26926.95,10888.53,8715.34
1390104.678,2035.81,11028.86,32672.79,31424.1,23968.7,26969.05,10978.51,8712.91
1390104.68,2552.56,11116.17,32678.13,31421.57,23957.02,27016.64,11100.25,8700.09
1390104.682,2814.01,11190.23,32667.31,31398.97,23936.8,27035.91,11205.67,8675.43
1390104.684,2713.78,11223.22,32650.86,31385.52,23921.3,27030.76,11246.73,8661.22
1390104.6861,2197.17,11192.28,32637.46,31380.32,23919.16,26989.7,11176.21,8662.84
1390104.6881,1571.27,11085.65,32639.75,31387.48,23937.32,26948.74,11030.39,8678.63
1390104.6901,1262.81,10998.3,32657.58,31410.84,23964.55,26937.92,10911.85,8700.8
1390104.6921,1420.45,10959.25,32664.49,31422.14,23970.08,26942.88,10862.78,8703.19
1390104.6941,1864.1,10987.95,32668.79,31421.09,23963.12,26980.83,10926.63,8691.98
1390104.6961,2382.8,11067.3,32675.17,31420.43,23952.11,27028.56,11044.41,8681.35
1390104.6981,2761.84,11160.42,32665.78,31408.84,23928.41,27040.77,11156.7,8660.6
1390104.7001,2785.06,11210.16,32651.33,31390.91,23911.05,27047.97,11224.32,8649.54
1390104.7021,2424.72,11220.69,32643.47,31386.38,23910.24,27020.46,11209.2,8650.73
1390104.7041,1761.25,11127.28,32633.69,31382.04,23921.54,26970.82,11075.55,8660.7
1390104.7061,1318.74,11024.38,32647.66,31395.58,23951.2,26926.23,10933.69,8688.26
1390104.7081,1311.06,10971.02,32666.4,31413.65,23970.46,26917.7,10859.92,8709.57
1390104.7101,1710.56,10993.29,32681.66,31429.29,23976.47,26954.46,10901.74,8717.63
1390104.7121,2203.61,11055.09,32687.48,31431.34,23971.85,26993.71,11002.59,8712.05
1390104.7141,2679.92,11149.65,32681.04,31423.29,23951.72,27016.26,11124.14,8692.93
1390104.7161,2814.48,11209.92,32664.73,31404.88,23930.84,27020.79,11215.78,8677.77
1390104.7181,2607.97,11238.62,32652.29,31399.87,23922.06,27006.44,11224.75,8670.38
1390104.7201,1975.11,11164.0,32644.51,31390.1,23929.88,26963.24,11113.07,8673.96
1390104.7221,1430.65,11055.8,32647.8,31399.87,23949.91,26931.96,10972.55,8689.93
1390104.7241,1250.7,10973.69,32656.63,31413.61,23966.36,26919.75,10867.02,8705.76
1390104.7261,1568.22,10983.33,32676.8,31432.11,23979.0,26948.79,10879.95,8717.82
1390104.7281,2032.09,11035.59,32688.19,31438.88,23980.57,26991.28,10964.35,8722.59
1390104.7301,2554.42,11120.18,32672.55,31423.05,23949.29,27025.51,11083.18,8697.94
1390104.7321,2797.79,11186.51,32648.71,31397.73,23916.91,27047.59,11185.79,8667.85
1390104.7341,2721.69,11229.33,32634.41,31385.04,23905.61,27053.12,11234.76,8654.02
1390104.7361,2198.89,11194.42,32629.45,31383.76,23915.25,27011.45,11165.43,8659.98
1390104.7381,1585.91,11087.8,32628.68,31383.66,23929.55,26937.54,11010.93,8672.05
1390104.7401,1244.93,10990.1,32649.19,31405.5,23956.49,26921.32,10890.2,8700.47
1390104.7421,1438.09,10973.98,32673.36,31429.68,23972.8,26947.98,10866.6,8718.11
1390104.7441,1852.56,10998.15,32677.32,31429.2,23961.07,26980.59,10920.76,8709.34
1390104.7461,2392.82,11076.79,32680.99,31426.96,23944.81,27016.79,11033.92,8688.5
1390104.7481,2755.02,11165.91,32676.13,31417.52,23924.16,27040.68,11155.99,8663.56
1390104.7501,2812.58,11224.8,32665.3,31406.07,23911.72,27029.47,11225.99,8655.26
1390104.7521,2425.0,11217.55,32650.05,31386.24,23906.47,26994.76,11196.42,8650.64
1390104.7541,1797.01,11137.92,32652.14,31393.91,23930.41,26959.8,11071.97,8675.15
1390104.7561,1330.61,11032.39,32664.97,31412.32,23962.21,26931.0,10927.34,8704.33
1390104.7581,1356.55,10994.1,32687.24,31440.21,23982.43,26945.55,10874.08,8729.74
1390104.7601,1717.85,11004.4,32685.09,31438.4,23971.85,26971.25,10902.55,8719.11
1390104.7621,2224.97,11056.76,32675.51,31429.77,23950.29,27011.45,10992.1,8685.02
1390104.7641,2685.07,11157.61,32675.7,31429.72,23933.7,27057.51,11125.04,8662.27
1390104.7661,2856.87,11226.56,32664.26,31419.66,23915.1,27079.49,11225.08,8632.52
1390104.7681,2609.3,11241.25,32642.89,31403.93,23903.28,27061.18,11227.32,8634.33
1390104.7701,2007.91,11175.11,32634.55,31394.58,23911.15,27014.4,11119.89,8669.19
1390104.7721,1434.47,11060.24,32642.23,31392.86,23931.89,26926.09,10966.45,8704.14
1390104.7741,1266.67,10977.22,32655.62,31394.63,23942.66,26897.96,10864.31,8719.35
1390104.7761,1558.83,10977.08,32672.55,31410.6,23953.01,26938.06,10873.22,8725.41
1390104.7781,2032.18,11016.61,32676.13,31421.67,23949.91,26964.62,10941.17,8711.86
1390104.7801,2543.26,11106.02,32673.12,31424.34,23938.23,27002.81,11062.91,8696.8
1390104.7821,2826.26,11197.43,32674.03,31435.25,23937.51,27029.61,11182.6,8692.22
1390104.7841,2753.21,11253.79,32671.17,31438.59,23937.09,27036.34,11239.82,8698.61
1390104.7861,2248.57,11221.55,32659.3,31423.19,23938.37,27005.15,11175.54,8704.38
1390104.7881,1609.18,11111.17,32650.52,31409.32,23949.2,26955.04,11028.43,8713.63
1390104.7901,1274.06,11007.74,32658.58,31408.98,23970.46,26929.81,10897.02,8737.37
1390104.7921,1441.19,10978.99,32670.55,31422.81,23977.38,26935.39,10858.2,8747.44
1390104.7941,1866.39,11009.65,32679.85,31430.06,23972.7,26977.21,10922.15,8744.77
1390104.7961,2394.96,11093.43,32680.8,31429.34,23956.59,27019.27,11038.69,8725.93
1390104.7981,2769.38,11182.93,32676.03,31420.76,23942.19,27052.41,11161.52,8706.52
1390104.8001,2821.21,11237.81,32659.73,31406.69,23925.88,27055.55,11237.81,8687.5
1390104.8021,2427.15,11230.66,32645.94,31398.68,23923.02,27017.74,11207.06,8682.01
1390104.8041,1783.61,11141.92,32633.12,31386.09,23928.55,26965.62,11076.5,8688.4
1390104.8061,1315.55,11030.63,32650.05,31405.6,23953.49,26943.4,10937.5,8715.49
1390104.8081,1328.42,10976.03,32665.45,31420.52,23964.41,26943.69,10863.5,8729.03
1390104.8101,1680.28,10973.22,32665.92,31417.99,23957.16,26963.19,10880.85,8722.54
1390104.8121,2200.56,11038.59,32662.35,31412.18,23941.38,26999.86,10984.8,8704.47
1390104.8141,2643.2,11125.28,32646.37,31394.2,23917.34,27028.56,11107.3,8674.67
1390104.8161,2814.01,11201.34,32634.12,31384.57,23901.32,27046.45,11209.35,8659.79
1390104.8181,2571.06,11219.26,32618.67,31376.75,23892.07,27024.75,11216.5,8653.12
1390104.8201,1992.42,11168.2,32617.14,31390.58,23906.85,26979.5,11121.18,8666.28
1390104.8221,1410.44,11052.51,32621.53,31415.37,23931.46,26949.93,10975.6,8667.23
1390104.8241,1255.8,10977.75,32636.31,31440.45,23949.53,26943.93,10868.6,8679.72
1390104.8261,1533.89,10980.27,32657.05,31452.71,23961.83,26971.15,10873.89,8714.96
1390104.8281,2036.09,11044.22,32676.41,31450.75,23965.55,27003.48,10968.45,8730.56
1390104.8301,2528.62,11129.43,32673.55,31423.38,23948.2,27038.96,11095.1,8720.97
1390104.8321,2822.45,11211.68,32656.58,31397.25,23923.5,27077.63,11211.3,8697.51
1390104.8341,2724.31,11248.07,32645.13,31393.48,23915.06,27067.95,11255.89,8682.92
1390104.8361,2237.65,11224.13,32640.17,31402.64,23920.97,27004.15,11184.65,8685.88
1390104.8381,1577.43,11108.11,32634.45,31399.68,23937.18,26944.55,11027.39,8684.83
1390104.8401,1258.18,11001.64,32635.74,31409.17,23948.86,26924.37,10892.11,8677.2
1390104.8421,1393.22,10958.58,32645.18,31418.71,23957.83,26927.19,10854.15,8686.4
1390104.8441,1847.12,10988.33,32657.1,31425.43,23953.92,26958.85,10920.38,8693.27
1390104.8461,2350.95,11056.23,32655.05,31403.78,23932.98,26987.22,11024.52,8686.59
1390104.8481,2747.77,11149.55,32644.8,31381.28,23909.38,27013.26,11142.88,8674.62
1390104.8501,2767.99,11206.63,32632.64,31363.4,23893.03,27028.66,11222.55,8669.33
1390104.8521,2415.09,11205.96,32613.76,31352.71,23883.87,27000.0,11199.0,8665.13
1390104.8541,1755.52,11118.7,32601.55,31347.8,23897.75,26950.89,11070.35,8674.91
1390104.8561,1308.82,11011.17,32610.56,31364.64,23922.88,26921.8,10935.12,8695.65
1390104.8581,1283.55,10949.18,32624.58,31389.14,23942.85,26917.89,10857.01,8703.42
1390104.8601,1671.46,10961.44,32637.41,31405.79,23944.14,26953.89,10885.19,8695.17
1390104.8621,2161.22,11019.9,32639.84,31397.54,23928.6,26996.81,10976.7,8684.59
1390104.8641,2648.4,11125.14,32646.61,31389.05,23915.82,27051.12,11119.61,8680.25
1390104.8661,2813.05,11199.24,32640.51,31377.51,23906.14,27063.99,11216.83,8667.66
1390104.8681,2598.48,11229.99,32635.74,31378.42,23903.99,27008.58,11230.66,8665.66
1390104.8701,1992.27,11177.02,32634.64,31382.52,23914.48,26961.33,11131.62,8679.06
1390104.8721,1430.65,11063.24,32635.84,31388.86,23929.17,26926.19,10982.04,8697.22
1390104.8741,1245.93,10977.17,32644.66,31398.11,23945.0,26914.98,10875.08,8709.72
1390104.8761,1536.27,10967.92,32658.58,31407.88,23958.16,26954.03,10882.19,8715.54
1390104.8781,2008.01,11018.23,32666.26,31413.13,23963.79,26997.33,10963.39,8717.3
1390104.8801,2522.52,11102.25,32661.58,31405.36,23941.04,27026.18,11078.74,8686.97
1390104.8821,2804.57,11185.7,32653.38,31394.29,23911.43,27042.25,11191.66,8645.58
1390104.8841,2722.12,11226.85,32646.47,31391.53,23897.13,27040.2,11239.43,8635.43
1390104.8861,2233.03,11212.68,32642.8,31399.44,23907.43,27014.35,11177.59,8661.7
1390104.8881,1594.93,11104.54,32633.55,31400.26,23925.97,26965.76,11026.57,8688.59
1390104.8901,1253.18,10999.25,32634.21,31398.59,23940.28,26939.11,10898.5,8706.05
1390104.8921,1397.9,10967.16,32648.81,31409.93,23956.68,26951.55,10858.82,8726.84
1390104.8941,1844.41,10999.73,32654.19,31412.56,23955.49,26968.53,10921.38,8727.65
1390104.8961,2355.53,11065.68,32647.42,31399.54,23930.98,26997.28,11033.35,8702.09
1390104.8981,2747.87,11158.42,32632.83,31381.42,23904.42,27034.76,11161.71,8667.04
1390104.9001,2795.7,11221.22,32627.63,31381.9,23901.85,27048.64,11246.01,8667.14
1390104.9021,2444.94,11233.52,32619.77,31383.23,23904.71,27017.74,11230.37,8669.57
1390104.9041,1779.13,11136.1,32615.09,31372.74,23918.35,26960.23,11088.09,8682.4
1390104.9061,1320.55,11022.9,32621.77,31381.23,23939.09,26931.0,10944.37,8703.66
1390104.9081,1304.48,10972.69,32644.8,31410.65,23962.88,26940.64,10876.94,8721.3
1390104.9101,1689.01,10989.81,32654.24,31423.33,23963.88,26960.33,10904.69,8718.59
1390104.9121,2171.8,11037.4,32650.38,31412.13,23944.57,26990.42,10991.86,8699.99
1390104.9141,2657.94,11135.77,32645.66,31392.34,23918.82,27024.89,11120.7,8681.78
1390104.9161,2812.82,11203.86,32634.64,31379.27,23903.04,27043.73,11219.69,8664.61
1390104.9181,2617.98,11238.19,32628.25,31376.89,23900.61,27035.91,11245.25,8664.66
1390104.9201,1990.89,11171.72,32626.06,31377.84,23911.43,26978.02,11121.08,8672.95
1390104.9221,1445.01,11067.06,32639.98,31397.58,23937.28,26925.95,10973.69,8688.64
1390104.9241,1252.6,10985.57,32658.72,31419.14,23958.11,26921.56,10874.37,8709.24
1390104.9261,1560.69,10984.37,32671.03,31426.05,23960.4,26960.38,10879.42,8716.87
1390104.9281,2017.21,11026.1,32670.17,31422.67,23955.06,27005.96,10959.82,8716.39
1390104.9301,2537.92,11106.44,32658.63,31401.11,23928.6,27039.72,11073.59,8691.03
1390104.9321,2803.76,11180.35,32643.7,31376.37,23906.62,27063.56,11183.88,8664.51
1390104.9341,2742.53,11229.66,32634.74,31369.4,23901.51,27039.58,11235.91,8659.7
1390104.9361,2226.64,11200.72,32627.68,31368.4,23910.43,26984.98,11167.43,8669.47
1390104.9381,1612.47,11099.72,32628.35,31373.46,23927.74,26928.38,11022.71,8684.59
1390104.9401,1249.22,10992.81,32641.13,31389.72,23948.82,26897.24,10885.81,8696.51
1390104.9421,1411.87,10962.2,32656.63,31410.98,23955.4,26905.97,10849.19,8698.89
1390104.9441,1824.14,10983.09,32659.49,31411.22,23948.0,26939.54,10906.65,8681.44
1390104.9461,2367.88,11064.2,32660.49,31416.37,23934.03,26979.16,11023.43,8660.89
1390104.9481,2743.44,11160.04,32657.67,31412.84,23916.82,27011.68,11150.08,8660.7
1390104.9501,2815.91,11224.51,32650.52,31403.26,23907.57,27028.71,11232.14,8668.47
1390104.9521,2437.97,11225.37,32635.98,31393.63,23901.04,26999.86,11204.53,8667.85
1390104.9541,1801.44,11139.87,32628.21,31387.24,23915.96,26951.13,11080.55,8681.82
1390104.9561,1315.12,11024.86,32635.6,31386.28,23939.95,26923.33,10936.74,8707.29
1390104.9581,1314.88,10967.78,32651.14,31405.26,23956.68,26923.61,10868.65,8723.31
1390104.9601,1675.08,10974.07,32656.05,31405.6,23953.06,26951.84,10903.98,8720.92
1390104.9621,2183.39,11032.15,32659.25,31405.83,23940.71,26993.23,11002.83,8708.14
1390104.9641,2643.06,11119.37,32651.14,31388.29,23914.96,27028.04,11125.85,8680.44
1390104.9661,2824.74,11192.23,32644.04,31369.17,23901.37,27045.63,11228.47,8664.08
1390104.9681,2606.58,11225.42,32636.07,31366.59,23898.27,27016.31,11234.09,8658.93
1390104.9701,2012.16,11166.57,32628.11,31372.74,23909.86,26973.16,11126.42,8657.41
1390104.9721,1440.86,11060.05,32637.5,31389.19,23936.04,26948.03,10985.33,8687.21
1390104.9741,1272.77,10981.85,32658.2,31408.22,23953.2,26946.26,10887.05,8716.06
1390104.9761,1557.3,10976.98,32676.84,31422.09,23960.31,26969.58,10890.96,8726.41
1390104.9781,2014.59,11008.5,32673.17,31418.47,23947.96,26981.02,10951.66,8707.76
1390104.9801,2523.85,11096.96,32667.12,31409.98,23930.27,27011.54,11072.06,8684.02
1390104.9821,2811.62,11179.64,32657.91,31392.1,23915.82,27037.39,11189.18,8668.14
1390104.9841,2739.62,11222.98,32645.9,31376.6,23910.62,27037.19,11239.48,8670.24
1390104.9861,2230.45,11186.93,32626.11,31363.63,23908.81,27003.01,11175.2,8670.57
1390104.9881,1589.3,11086.08,32618.48,31361.68,23922.02,26961.62,11030.63,8686.69
1390104.9901,1243.26,10988.52,32639.79,31385.38,23952.2,26932.48,10906.98,8717.35
1390104.9921,1407.19,10965.73,32661.35,31406.36,23965.89,26925.38,10871.22,8729.79
1390104.9941,1826.24,10986.76,32665.16,31410.79,23955.73,26951.6,10914.95,8722.31
1390104.9961,2343.7,11060.86,32655.62,31413.89,23928.79,26983.46,11019.28,8692.03
1390104.9981,2731.99,11157.8,32655.24,31419.47,23909.86,27024.22,11145.26,8664.51
1390105.0001,2806.38,11228.37,32652.81,31412.18,23904.95,27030.14,11231.81,8662.18
1390105.0021,2437.07,11231.57,32645.28,31397.82,23908.52,27001.1,11210.25,8671.33
1390105.0041,1796.87,11140.78,32635.64,31387.0,23923.11,26954.56,11082.79,8692.5
1390105.0061,1310.59,11022.86,32643.8,31398.59,23950.2,26923.8,10940.89,8722.83
1390105.0081,1310.16,10970.12,32658.53,31412.65,23960.31,26919.03,10867.07,8733.37
1390105.0101,1675.89,10988.28,32681.14,31429.01,23973.18,26958.9,10906.13,8742.38
1390105.0121,2208.42,11061.38,32698.16,31438.97,23976.28,27002.72,11007.69,8738.85
1390105.0141,2656.41,11140.2,32678.61,31419.42,23943.14,27033.52,11126.28,8704.28
1390105.0161,2837.52,11213.59,32650.9,31401.69,23912.38,27055.41,11226.37,8672.95
1390105.0181,2612.4,11238.19,32637.7,31403.16,23901.8,27040.58,11240.91,8670.19
1390105.0201,2021.6,11174.82,32624.87,31397.11,23904.85,26987.03,11140.78,8678.72
1390105.0221,1424.12,11049.27,32621.67,31385.85,23924.78,26932.53,10980.23,8697.18
1390105.0241,1248.55,10969.93,32633.93,31399.87,23947.86,26914.17,10876.7,8715.15
1390105.0261,1515.29,10963.73,32653.76,31410.84,23967.84,26928.67,10879.09,8731.8
1390105.0281,2011.68,11019.14,32667.12,31411.84,23965.27,26966.1,10968.35,8719.73
1390105.0301,2505.59,11099.2,32663.64,31412.41,23942.04,27005.15,11088.9,8677.1
1390105.0321,2815.39,11183.17,32648.23,31399.3,23914.63,27029.09,11202.58,8643.63
1390105.0341,2728.84,11229.09,32644.47,31390.34,23908.76,27029.9,11253.02,8640.0
1390105.0361,2258.87,11211.35,32641.56,31393.91,23913.82,26994.42,11194.18,8667.37
1390105.0381,1596.83,11103.82,32635.6,31394.77,23928.65,26953.89,11050.99,8703.33
1390105.0401,1268.43,11003.64,32645.94,31414.56,23951.1,26941.78,10927.25,8733.42
1390105.0421,1397.99,10966.02,32664.59,31429.25,23968.03,26952.7,10876.32,8748.44
1390105.0441,1848.84,10996.3,32674.98,31425.62,23969.61,26986.17,10931.92,8741.14
1390105.0461,2350.33,11066.49,32668.79,31406.12,23955.87,27019.41,11046.7,8727.69
1390105.0481,2762.75,11162.85,32654.34,31388.62,23934.32,27035.76,11168.15,8711.01
1390105.0501,2800.37,11217.79,32632.78,31371.07,23914.29,27045.63,11246.87,8691.12
1390105.0521,2459.81,11224.94,32621.86,31373.17,23908.86,27011.21,11220.6,8676.58
1390105.0541,1789.76,11133.62,32616.76,31369.26,23915.87,26956.51,11081.6,8679.92
1390105.0561,1321.75,11016.66,32626.39,31377.46,23932.03,26923.71,10930.68,8700.37
1390105.0581,1287.13,10954.76,32645.61,31396.82,23947.24,26922.66,10848.67,8723.4
1390105.0601,1670.03,10966.02,32656.29,31410.27,23946.91,26959.57,10881.62,8729.36
1390105.0621,2158.36,11025.43,32649.14,31407.88,23929.65,27004.1,10984.47,8711.53
1390105.0641,2647.35,11127.43,32645.85,31416.04,23914.1,27052.02,11125.85,8683.97
1390105.0661,2825.79,11210.73,32643.8,31404.07,23911.19,27079.92,11231.61,8669.66
1390105.0681,2625.04,11233.38,32633.31,31382.76,23908.28,27053.65,11244.35,8662.37
1390105.0701,2023.51,11175.78,32626.68,31379.94,23915.58,27003.01,11151.6,8671.48
1390105.0721,1446.87,11062.77,32636.74,31388.14,23939.99,26957.9,10999.54,8700.51
1390105.0741,1241.87,10973.12,32646.66,31395.15,23957.78,26909.59,10879.52,8715.15
1390105.0761,1522.73,10960.25,32654.19,31411.08,23961.45,26915.32,10867.02,8715.3
1390105.0781,2003.38,11019.37,32665.73,31423.29,23959.97,26967.48,10958.01,8718.11
1390105.0801,2524.19,11110.12,32663.97,31414.8,23944.52,27014.16,11090.33,8710.0
1390105.0821,2817.39,11198.19,32650.19,31391.67,23923.92,27039.82,11204.63,8695.41
1390105.0841,2747.92,11245.3,32638.94,31378.42,23915.87,27034.29,11257.08,8683.25
1390105.0861,2251.63,11216.98,32622.87,31364.83,23912.48,26991.42,11191.27,8676.53
1390105.0881,1602.98,11104.3,32620.67,31371.74,23929.98,26942.3,11041.36,8692.79
1390105.0901,1254.84,11004.83,32632.02,31390.43,23951.63,26921.99,10916.43,8713.15
1390105.0921,1383.83,10968.54,32644.8,31405.36,23959.59,26931.91,10872.79,8721.3
1390105.0941,1821.23,10997.11,32653.53,31412.41,23954.87,26968.77,10930.01,8715.92
1390105.0961,2344.04,11070.92,32655.34,31414.32,23936.51,27006.92,11038.45,8698.04
1390105.0981,2762.03,11176.87,32654.62,31414.66,23922.11,27050.07,11174.3,8685.4
1390105.1001,2802.94,11223.37,32638.7,31393.58,23906.42,27054.84,11244.39,8670.09
1390105.1021,2463.1,11226.04,32627.16,31383.8,23898.18,27014.93,11219.22,8666.71
1390105.1041,1803.54,11139.49,32624.11,31388.48,23910.14,26972.54,11094.05,8679.63
1390105.1061,1339.25,11036.83,32637.89,31407.12,23937.99,26950.98,10957.15,8704.23
1390105.1081,1300.95,10974.27,32654.58,31421.38,23960.97,26951.84,10879.85,8723.4
1390105.1101,1684.09,10983.61,32658.58,31413.27,23956.35,26965.72,10908.41,8719.87
1390105.1121,2168.46,11035.68,32656.05,31399.59,23941.47,26993.95,11001.06,8707.86
1390105.1141,2661.61,11138.63,32652.33,31392.39,23922.02,27036.48,11137.3,8688.55
1390105.1161,2821.97,11205.77,32639.32,31379.18,23899.89,27055.93,11228.47,8655.02
1390105.1181,2635.19,11248.16,32633.55,31386.09,23896.79,27049.12,11251.55,8639.72
1390105.1201,2028.42,11198.09,32637.17,31395.82,23918.82,27014.07,11160.33,8661.41
1390105.1221,1462.7,11084.51,32641.8,31401.83,23940.71,26975.06,11009.98,8692.69
1390105.1241,1245.17,10990.81,32655.39,31417.47,23959.21,26935.1,10893.49,8726.03
1390105.1261,1543.95,10990.67,32671.22,31440.36,23968.46,26958.85,10894.63,8735.71
1390105.1281,1988.41,11028.91,32672.36,31440.07,23957.21,26995.85,10970.98,8721.26
1390105.1301,2522.37,11117.13,32663.02,31429.29,23933.56,27022.27,11087.66,8700.13
1390105.1321,2803.85,11207.01,32652.33,31416.8,23917.87,27036.81,11204.29,8682.63
1390105.1341,2761.84,11266.61,32648.71,31417.04,23915.1,27032.38,11263.85,8679.2
1390105.1361,2252.82,11233.66,32640.37,31410.6,23917.82,26995.38,11198.38,8681.78
1390105.1381,1626.59,11123.42,32639.13,31407.03,23936.56,26955.66,11050.27,8703.42
1390105.1401,1251.13,11006.93,32641.94,31405.02,23956.49,26930.91,10912.09,8725.45
1390105.1421,1402.38,10973.6,32654.58,31401.69,23968.37,26933.1,10874.46,8735.51
1390105.1441,1817.13,11002.73,32664.83,31403.26,23965.27,26965.14,10930.97,8734.42
1390105.1461,2354.29,11080.6,32664.97,31400.16,23943.38,26996.09,11035.73,8719.35
1390105.1481,2733.52,11171.96,32655.2,31384.9,23919.39,27020.17,11155.32,8695.08
1390105.1501,2809.52,11232.09,32642.18,31376.65,23905.9,27028.09,11236.57,8675.48
1390105.1521,2456.81,11239.24,32636.36,31378.08,23903.9,27008.54,11223.46,8673.48
1390105.1541,1819.99,11153.22,32629.88,31383.71,23915.87,26963.43,11093.47,8683.78
1390105.1561,1307.44,11031.44,32634.31,31395.77,23933.22,26927.67,10944.27,8695.08
1390105.1581,1291.51,10972.88,32649.66,31417.8,23948.34,26929.14,10865.36,8710.19
1390105.1601,1655.96,10985.95,32660.11,31423.43,23950.48,26967.15,10895.92,8712.53
1390105.1621,2171.23,11039.02,32661.35,31416.85,23937.42,26992.09,10987.0,8705.28
1390105.1641,2628.28,11129.0,32645.99,31405.26,23913.58,27011.21,11109.59,8682.87
1390105.1661,2819.44,11206.39,32636.79,31390.58,23898.08,27036.91,11218.98,8667.85
1390105.1681,2623.03,11240.67,32624.2,31382.37,23893.31,27033.95,11241.15,8661.13
1390105.1701,2037.57,11187.36,32617.76,31376.27,23913.67,27012.97,11147.79,8677.2
1390105.1721,1444.44,11065.91,32620.34,31378.7,23939.76,26960.52,10994.48,8702.47
1390105.1741,1251.03,10982.61,32640.13,31400.35,23964.69,26943.45,10892.54,8730.6
1390105.1761,1526.88,10975.55,32654.19,31416.13,23969.61,26949.84,10882.28,8738.23
1390105.1781,1995.04,11013.03,32659.34,31415.18,23957.97,26968.15,10954.38,8725.74
1390105.1801,2520.85,11110.12,32667.59,31413.27,23943.24,27006.44,11087.56,8711.67
1390105.1821,2822.11,11197.85,32659.58,31401.3,23929.27,27028.23,11201.0,8689.5
1390105.1841,2752.73,11244.49,32639.32,31382.09,23912.38,27021.6,11249.83,8668.9
1390105.1861,2260.49,11216.93,32630.16,31377.75,23913.05,26987.6,11186.98,8669.9
1390105.1881,1616.86,11106.16,32621.63,31373.65,23922.49,26936.11,11041.4,8682.54
1390105.1901,1246.98,10991.86,32631.54,31382.23,23942.19,26916.75,10905.31,8694.84
1390105.1921,1387.5,10960.29,32650.81,31403.12,23956.59,26931.91,10867.17,8697.03
1390105.1941,1809.98,10980.89,32660.73,31405.12,23951.68,26969.44,10923.58,8696.27
1390105.1961,2349.9,11063.24,32658.49,31399.92,23928.98,27013.45,11040.12,8677.2
1390105.1981,2737.76,11157.04,32649.33,31392.63,23904.95,27043.82,11164.62,8661.41
1390105.2001,2820.68,11227.94,32639.13,31383.66,23888.97,27049.12,11253.98,8659.98
1390105.2021,2452.04,11222.51,32619.05,31363.44,23881.34,27011.87,11224.8,8657.98
1390105.2041,1815.27,11143.45,32619.72,31369.17,23908.05,26962.57,11095.05,8679.58
1390105.2061,1310.63,11023.28,32629.68,31386.52,23937.66,26922.18,10951.33,8703.61
1390105.2081,1294.66,10967.07,32646.71,31411.79,23957.45,26916.75,10875.18,8718.92
1390105.2101,1651.95,10975.51,32654.81,31419.95,23962.41,26946.45,10894.92,8720.83
1390105.2121,2174.28,11052.9,32666.97,31427.2,23958.97,26991.75,10995.34,8723.88
1390105.2141,2648.78,11153.6,32670.84,31421.28,23944.95,27036.24,11129.29,8712.48
1390105.2161,2841.9,11221.41,32650.38,31386.19,23920.06,27038.29,11226.37,8682.25
1390105.2181,2607.3,11234.67,32625.11,31364.54,23901.32,27012.69,11235.62,8662.65
1390105.2201,2029.09,11186.03,32622.48,31375.51,23911.86,26976.83,11146.83,8669.95
1390105.2221,1435.42,11075.69,32636.93,31401.21,23940.52,26951.51,11003.69,8695.84
1390105.2241,1254.37,10995.1,32652.53,31424.81,23956.92,26923.85,10894.49,8710.62
1390105.2261,1503.37,10979.22,32668.79,31428.72,23965.17,26930.05,10884.43,8723.31
1390105.2281,1996.9,11024.76,32678.94,31428.29,23958.69,26974.16,10967.54,8720.64
1390105.2301,2496.39,11104.39,32671.17,31406.55,23936.66,27009.87,11084.03,8700.42
1390105.2321,2808.29,11191.8,32647.09,31387.05,23912.29,27035.48,11198.57,8671.71
1390105.2341,2721.36,11232.28,32624.2,31377.13,23895.7,27029.47,11242.06,8652.4
1390105.2361,2256.63,11214.07,32615.95,31378.56,23902.8,26990.61,11186.22,8661.32
1390105.2381,1600.31,11109.12,32618.43,31381.42,23925.55,26940.78,11042.12,8689.93
1390105.2401,1249.69,11000.59,32625.73,31394.44,23943.9,26912.26,10909.22,8707.72
1390105.2421,1365.23,10966.02,32647.28,31417.52,23962.36,26930.53,10872.41,8723.21
1390105.2441,1813.84,10996.15,32659.73,31422.62,23960.55,26970.01,10929.73,8723.74
1390105.2461,2323.77,11066.53,32655.62,31410.41,23940.57,27000.67,11036.11,8707.57
1390105.2481,2740.1,11166.43,32652.43,31394.87,23920.4,27031.23,11165.14,8690.02
1390105.2501,2797.56,11230.37,32643.94,31380.23,23906.38,27044.63,11250.31,8675.86
1390105.2521,2475.74,11248.54,32640.32,31385.38,23903.66,27026.28,11239.43,8672.19
1390105.2541,1821.57,11170.44,32640.51,31387.81,23923.4,26989.32,11123.13,8691.12
1390105.2561,1342.44,11053.04,32646.47,31394.01,23945.81,26955.66,10974.22,8708.53
1390105.2581,1291.99,10988.86,32660.06,31409.46,23964.07,26947.84,10886.24,8717.2
1390105.2601,1665.02,10992.48,32667.78,31419.38,23968.79,26968.39,10907.37,8717.54
1390105.2621,2160.22,11052.99,32674.51,31423.1,23965.7,27011.4,11008.41,8713.77
1390105.2641,2668.38,11161.52,32682.57,31431.58,23958.88,27055.51,11148.98,8711.58
1390105.2661,2859.88,11244.58,32673.36,31417.66,23944.05,27081.21,11258.17,8702.9
1390105.2681,2673.82,11277.77,32663.73,31411.75,23934.65,27073.58,11281.44,8698.89
1390105.2701,2069.47,11224.13,32656.48,31405.12,23940.95,27029.95,11189.84,8705.76
1390105.2721,1492.12,11111.17,32663.78,31414.08,23967.27,26989.51,11046.27,8723.59
1390105.2741,1287.27,11026.1,32680.61,31433.06,23986.87,26974.68,10934.4,8735.61
1390105.2761,1543.81,11004.26,32685.57,31442.22,23984.01,26987.56,10914.52,8733.23
1390105.2781,2012.49,11045.84,32689.62,31444.36,23974.18,27010.87,10984.52,8725.41
1390105.2801,2519.04,11121.94,32680.56,31430.06,23940.71,27018.69,11094.0,8699.37
1390105.2821,2816.73,11200.33,32657.58,31405.5,23909.43,27032.57,11202.72,8672.52
1390105.2841,2743.86,11237.15,32641.84,31388.67,23901.61,27014.69,11241.58,8672.52
1390105.2861,2256.54,11213.59,32622.77,31376.17,23903.09,26973.39,11176.64,8678.06
1390105.2881,1600.12,11104.01,32614.23,31377.46,23916.34,26926.43,11026.53,8689.79
1390105.2901,1248.98,11005.64,32633.98,31394.68,23944.52,26909.12,10904.5,8704.0
1390105.2921,1367.9,10966.06,32656.29,31415.61,23955.01,26917.13,10860.44,8707.67
1390105.2941,1815.03,11000.11,32675.51,31425.53,23955.01,26955.51,10923.53,8717.92
1390105.2961,2332.5,11072.3,32682.76,31416.85,23943.14,26997.0,11035.49,8714.3
1390105.2981,2740.43,11162.95,32664.64,31394.2,23919.25,27023.7,11154.61,8682.3
1390105.3001,2792.17,11215.83,32641.7,31383.23,23899.56,27031.23,11230.18,8656.74
1390105.3021,2464.53,11227.04,32621.29,31386.33,23889.26,27004.44,11218.41,8657.6
1390105.3041,1800.68,11143.11,32622.2,31395.34,23910.95,26967.19,11096.1,8682.92
1390105.3061,1328.75,11032.06,32636.98,31410.98,23943.47,26938.01,10952.14,8716.73
1390105.3081,1271.25,10959.53,32654.58,31427.67,23967.03,26935.63,10867.64,8731.8
1390105.3101,1665.4,10975.41,32673.74,31430.92,23973.66,26972.96,10898.78,8730.65
1390105.3121,2141.52,11025.48,32668.17,31414.94,23952.82,26984.93,10985.85,8704.62
1390105.3141,2635.53,11117.27,32654.77,31402.97,23923.35,26990.42,11101.39,8678.34
1390105.3161,2810.67,11191.27,32647.52,31389.48,23908.0,27009.92,11209.3,8672.76
1390105.3181,2635.62,11229.23,32640.17,31381.66,23893.41,27001.53,11239.48,8669.38
1390105.3201,2020.03,11170.53,32635.45,31383.42,23900.61,26957.47,11140.2,8681.73
1390105.3221,1448.97,11059.95,32635.22,31389.19,23927.07,26921.9,10988.14,8704.14
1390105.3241,1219.23,10973.41,32646.71,31406.55,23952.44,26913.31,10877.47,8723.88
1390105.3261,1495.27,10961.15,32660.11,31410.41,23960.07,26937.82,10875.89,8728.27
1390105.3281,1951.6,11001.25,32667.88,31413.46,23955.92,26975.3,10954.43,8722.78
1390105.3301,2503.2,11102.06,32671.07,31427.1,23946.43,27005.15,11081.65,8705.09
1390105.3321,2805.52,11192.04,32658.53,31413.03,23932.27,27036.86,11210.35,8681.25
1390105.3341,2762.99,11236.38,32640.08,31391.67,23920.21,27034.14,11266.76,8672.81
1390105.3361,2259.59,11204.67,32622.96,31375.46,23915.25,26990.7,11199.38,8679.3
1390105.3381,1622.96,11095.95,32616.62,31372.88,23926.79,26946.5,11053.61,8695.17
1390105.3401,1239.59,10989.1,32632.55,31390.34,23949.05,26924.18,10916.9,8718.21
1390105.3421,1370.24,10949.18,32645.71,31406.26,23955.59,26929.14,10866.02,8725.55
1390105.3441,1784.61,10974.84,32650.43,31412.41,23952.49,26969.01,10920.91,8722.35
1390105.3461,2326.15,11055.85,32648.19,31410.22,23937.66,27017.79,11038.92,8705.66
1390105.3481,2713.97,11146.69,32639.6,31394.82,23917.77,27031.66,11157.13,8683.25
1390105.3501,2801.75,11208.82,32636.41,31389.1,23903.23,27035.62,11238.0,8672.19
1390105.3521,2450.04,11216.64,32630.78,31384.57,23901.89,26983.31,11224.94,8674.57
1390105.3541,1819.71,11142.26,32634.45,31384.42,23921.4,26943.88,11109.26,8693.12
1390105.3561,1308.35,11022.71,32641.46,31393.63,23946.76,26910.98,10960.1,8709.0
1390105.3581,1274.59,10954.76,32657.29,31416.61,23962.69,26904.01,10871.94,8719.97
1390105.3601,1624.63,10963.49,32664.3,31418.95,23958.16,26934.77,10898.02,8717.68
1390105.3621,2133.04,11015.8,32660.3,31409.51,23940.71,26971.96,10991.81,8698.99
1390105.3641,2604.39,11106.68,32652.29,31399.16,23922.73,27011.02,11114.46,8684.64
1390105.3661,2809.62,11182.02,32636.03,31385.28,23901.66,27027.71,11209.44,8666.42
1390105.3681,2619.41,11214.21,32620.39,31372.26,23889.35,27006.3,11232.38,8652.83
1390105.3701,2025.65,11163.43,32618.19,31369.21,23901.61,26957.8,11141.64,8663.61
1390105.3721,1433.04,11051.56,32625.54,31379.75,23928.84,26921.94,10988.14,8687.16
1390105.3741,1225.42,10962.44,32642.56,31399.78,23952.44,26909.97,10874.8,8701.23
1390105.3761,1497.55,10961.3,32660.2,31416.47,23961.4,26942.73,10876.32,8715.34
1390105.3781,1963.85,11002.83,32668.31,31417.04,23955.63,26987.6,10951.85,8718.35
1390105.3801,2492.95,11094.09,32667.64,31409.7,23940.85,27022.41,11079.03,8704.76
1390105.3821,2801.32,11181.59,32654.96,31397.54,23917.63,27032.66,11190.94,8688.12
1390105.3841,2748.16,11230.18,32637.17,31387.86,23905.14,27022.08,11249.97,8676.86
1390105.3861,2261.31,11201.67,32624.77,31388.1,23906.52,26984.17,11182.55,8674.48
1390105.3881,1619.96,11102.34,32632.59,31395.11,23926.36,26944.93,11048.41,8696.6
1390105.3901,1248.26,10996.92,32651.33,31404.69,23957.45,26923.71,10922.86,8726.31
1390105.3921,1379.2,10965.63,32670.26,31419.9,23971.04,26925.19,10868.98,8736.09
1390105.3941,1797.77,10988.52,32676.18,31419.95,23960.69,26954.32,10918.09,8730.56
1390105.3961,2341.89,11071.87,32676.84,31423.67,23943.0,26992.94,11035.01,8714.1
1390105.3981,2743.1,11163.14,32663.16,31409.74,23925.64,27025.13,11152.46,8691.45
1390105.4001,2830.46,11227.9,32644.51,31394.01,23909.52,27038.48,11234.86,8670.38
1390105.4021,2477.88,11233.43,32631.31,31392.48,23903.66,27008.63,11217.36,8660.46
1390105.4041,1842.79,11155.56,32623.96,31393.82,23914.24,26970.2,11103.44,8666.42
1390105.4061,1314.97,11022.76,32623.15,31395.58,23927.26,26933.72,10945.04,8678.63
1390105.4081,1289.42,10972.12,32652.57,31425.15,23953.49,26932.86,10865.4,8706.76
1390105.4101,1629.78,10974.74,32656.72,31433.16,23951.77,26947.55,10887.58,8711.15
1390105.4121,2147.01,11034.16,32651.86,31425.48,23939.42,26975.87,10978.22,8694.22
1390105.4141,2610.64,11121.75,32645.75,31409.22,23925.45,27003.67,11105.68,8685.02
1390105.4161,2832.51,11204.05,32637.79,31386.14,23907.28,27022.79,11217.21,8676.39
1390105.4181,2636.39,11230.85,32631.69,31376.03,23899.75,27000.0,11235.57,8675.58
1390105.4201,2069.43,11187.22,32633.74,31383.09,23914.96,26950.31,11148.79,8694.94
1390105.4221,1449.16,11066.49,32641.03,31393.44,23936.23,26917.32,10998.87,8710.29
1390105.4241,1245.88,10983.09,32651.62,31403.93,23956.92,26902.3,10892.58,8724.74
1390105.4261,1495.41,10967.07,32664.88,31406.98,23968.46,26928.52,10882.47,8732.22
1390105.4281,1988.36,11022.95,32679.04,31414.23,23972.9,26980.12,10967.3,8732.03
1390105.4301,2490.66,11105.44,32672.03,31408.74,23952.77,27011.92,11082.89,8714.15
1390105.4321,2815.82,11190.42,32651.09,31387.67,23919.06,27020.12,11193.94,8687.83
1390105.4341,2753.83,11234.19,32633.5,31376.79,23902.04,27018.74,11247.06,8672.38
1390105.4361,2296.5,11222.13,32629.83,31388.48,23906.19,26991.66,11199.48,8675.05
1390105.4381,1632.83,11121.32,32632.31,31408.65,23921.87,26952.56,11057.33,8691.93
1390105.4401,1261.85,10998.06,32628.68,31406.79,23925.21,26913.03,10908.8,8693.36
1390105.4421,1355.93,10950.19,32640.56,31407.41,23932.84,26914.55,10858.78,8697.8
1390105.4441,1799.54,10985.28,32662.01,31413.99,23940.57,26954.46,10913.09,8705.62
1390105.4461,2311.09,11052.42,32660.11,31409.27,23926.83,26990.7,11018.47,8685.35
1390105.4481,2750.4,11155.51,32653.05,31403.12,23914.01,27031.19,11153.89,8658.22
1390105.4501,2818.44,11226.94,32642.32,31392.96,23907.81,27052.69,11246.78,8662.75
1390105.4521,2501.77,11245.4,32637.7,31394.53,23912.96,27038.39,11242.63,8683.73
1390105.4541,1841.55,11162.57,32630.83,31391.29,23931.55,26987.22,11109.64,8704.09
1390105.4561,1352.83,11043.07,32637.55,31395.87,23955.01,26933.15,10955.29,8727.17
1390105.4581,1280.98,10973.45,32652.33,31410.89,23967.56,26936.34,10871.84,8737.85
1390105.4601,1658.63,10986.19,32670.79,31428.25,23973.04,26974.11,10901.88,8736.71
1390105.4621,2164.03,11051.66,32684.85,31437.4,23969.94,27028.37,11010.46,8737.04
1390105.4641,2661.85,11147.36,32678.66,31427.2,23948.1,27049.5,11133.29,8722.88
1390105.4661,2844.57,11220.27,32659.58,31409.22,23925.69,27036.24,11225.65,8702.71
1390105.4681,2662.99,11250.07,32645.28,31401.73,23912.58,27015.55,11243.96,8681.58
1390105.4701,2062.56,11186.22,32629.26,31379.89,23907.14,26973.3,11148.02,8666.47
1390105.4721,1463.08,11060.86,32630.07,31378.42,23923.35,26936.49,10989.62,8688.31
1390105.4741,1235.91,10974.22,32644.18,31402.02,23947.05,26923.14,10869.98,8719.02
1390105.4761,1494.36,10962.15,32656.34,31422.24,23952.06,26940.78,10864.64,8730.6
1390105.4781,1962.71,11003.21,32656.39,31419.85,23938.85,26971.25,10940.51,8721.5
1390105.4801,2478.31,11086.66,32649.43,31407.5,23919.63,27009.44,11057.09,8702.66
1390105.4821,2806.09,11187.65,32645.09,31398.49,23909.95,27044.35,11186.31,8690.02
1390105.4841,2766.66,11237.96,32636.22,31395.63,23906.62,27050.45,11254.36,8681.49
1390105.4861,2306.89,11225.56,32626.54,31394.15,23906.38,27022.56,11205.82,8674.1
1390105.4881,1635.93,11109.02,32625.87,31393.67,23922.64,26972.11,11050.99,8683.4
1390105.4901,1268.96,11002.3,32638.94,31406.93,23946.48,26928.57,10912.52,8704.57
1390105.4921,1379.2,10963.39,32663.59,31430.06,23964.93,26932.53,10865.17,8727.74
1390105.4941,1810.84,10992.53,32673.51,31432.68,23960.4,26961.95,10917.19,8727.31
1390105.4961,2328.06,11067.2,32674.32,31430.39,23946.48,27003.2,11027.24,8718.97
1390105.4981,2760.89,11170.58,32659.34,31411.94,23924.02,27037.91,11161.76,8704.38
1390105.5001,2836.32,11231.28,32644.85,31397.16,23909.76,27051.5,11244.73,8691.22
1390105.5021,2514.17,11239.58,32628.78,31388.95,23903.04,27024.8,11223.03,8678.39
1390105.5041,1851.99,11151.03,32622.06,31391.58,23918.58,26980.4,11098.1,8686.73
1390105.5061,1358.32,11033.49,32619.72,31399.06,23933.08,26942.54,10948.75,8698.42
1390105.5081,1282.36,10961.53,32632.4,31411.7,23943.19,26931.24,10857.3,8712.48
1390105.5101,1654.67,10974.12,32650.05,31421.81,23946.96,26955.13,10883.0,8723.93
1390105.5121,2141.29,11032.82,32657.77,31418.61,23940.9,26995.57,10974.65,8717.25
1390105.5141,2647.3,11129.62,32651.33,31406.31,23910.1,27020.98,11101.29,8685.64
1390105.5161,2826.26,11198.67,32636.07,31381.75,23888.26,27028.04,11204.34,8664.99
1390105.5181,2668.52,11243.68,32633.69,31381.28,23893.55,27021.94,11237.29,8669.9
1390105.5201,2072.29,11192.94,32629.78,31385.62,23912.43,26999.86,11150.03,8688.07
1390105.5221,1500.46,11083.99,32630.54,31398.2,23938.85,26959.23,11007.5,8708.38
1390105.5241,1245.07,10986.62,32643.08,31412.27,23963.74,26917.89,10888.39,8730.51
1390105.5261,1520.06,10978.75,32658.58,31425.91,23973.18,26934.34,10883.43,8739.76
1390105.5281,1962.85,11015.65,32660.82,31419.9,23962.41,26973.35,10953.95,8731.27
1390105.5301,2504.97,11105.54,32661.82,31415.18,23944.38,27008.87,11074.59,8715.34
1390105.5321,2795.6,11182.5,32646.37,31395.82,23919.3,27034.91,11186.65,8692.17
1390105.5341,2766.7,11231.66,32634.21,31387.71,23901.99,27037.67,11244.58,8675.96
1390105.5361,2282.19,11209.2,32627.16,31383.57,23904.18,27005.82,11190.65,8674.81
1390105.5381,1654.82,11114.03,32634.55,31397.16,23925.74,26958.18,11053.71,8694.79
1390105.5401,1254.13,10997.92,32644.7,31410.7,23948.34,26928.71,10915.23,8715.92
1390105.5421,1379.44,10957.91,32657.2,31430.63,23961.45,26934.1,10863.83,8727.6
1390105.5441,1779.46,10979.13,32655.96,31428.72,23954.97,26950.7,10908.32,8709.96
1390105.5461,2307.65,11050.8,32654.24,31423.52,23935.18,26977.35,11007.26,8679.25
1390105.5481,2717.45,11155.56,32656.91,31412.94,23925.83,27026.89,11142.54,8676.96
1390105.5501,2821.02,11222.98,32643.7,31394.34,23917.34,27059.46,11238.53,8683.68
1390105.5521,2487.14,11233.86,32629.78,31388.0,23912.58,27036.81,11229.61,8682.4
1390105.5541,1852.56,11151.84,32622.44,31387.38,23922.16,26969.25,11105.44,8693.74
1390105.5561,1333.71,11035.83,32625.97,31396.82,23942.81,26928.95,10957.43,8719.54
1390105.5581,1283.22,10964.16,32638.22,31414.37,23957.49,26926.66,10867.31,8735.85
1390105.5601,1625.11,10969.45,32652.91,31426.91,23959.4,26955.89,10890.63,8736.42
1390105.5621,2132.56,11032.77,32661.44,31430.25,23951.1,26998.9,10992.1,8733.56
1390105.5641,2615.5,11131.76,32660.49,31415.13,23938.09,27039.34,11130.14,8721.02
1390105.5661,2827.12,11205.01,32651.95,31402.97,23924.64,27063.8,11232.43,8704.95
1390105.5681,2644.97,11235.43,32638.55,31395.68,23913.62,27046.97,11246.49,8691.65
1390105.5701,2073.38,11184.55,32628.73,31391.34,23920.11,26990.99,11151.27,8701.66
1390105.5721,1474.81,11064.82,32626.63,31391.43,23937.18,26927.52,10992.96,8715.39
1390105.5741,1235.68,10965.63,32633.02,31403.12,23954.11,26905.73,10877.52,8727.93
1390105.5761,1483.54,10954.1,32645.61,31413.99,23958.69,26926.23,10866.79,8733.23
1390105.5781,1943.4,10993.29,32649.09,31414.89,23950.58,26957.47,10940.12,8729.17
1390105.5801,2460.29,11078.98,32637.31,31401.97,23923.5,26997.76,11059.29,8707.24
1390105.5821,2764.03,11158.23,32622.68,31377.18,23897.46,27026.23,11169.53,8677.44
1390105.5841,2741.81,11214.45,32622.25,31370.98,23890.88,27030.14,11236.67,8661.18
1390105.5861,2275.99,11197.09,32621.24,31370.41,23897.7,26983.69,11181.74,8668.14
1390105.5881,1645.23,11100.2,32628.44,31380.94,23920.73,26945.26,11045.89,8696.94
1390105.5901,1259.52,10987.57,32637.41,31399.06,23946.43,26914.46,10907.65,8725.6
1390105.5921,1366.42,10948.56,32643.85,31405.17,23954.92,26910.26,10855.39,8731.18
1390105.5941,1763.68,10963.2,32645.61,31399.35,23948.2,26942.97,10900.78,8719.4
1390105.5961,2302.07,11041.69,32645.61,31400.26,23935.42,26989.27,11018.42,8704.81
1390105.5981,2702.86,11129.0,32636.74,31391.67,23909.86,27012.26,11134.24,8678.48
1390105.6001,2810.19,11200.14,32629.64,31386.62,23900.94,27026.85,11222.89,8663.46
1390105.6021,2473.26,11208.92,32617.43,31378.46,23896.7,27005.87,11210.2,8665.42
1390105.6041,1852.8,11136.72,32608.56,31377.46,23907.62,26955.46,11092.81,8687.26
1390105.6061,1334.14,11020.8,32615.0,31388.76,23931.12,26918.89,10943.46,8717.01
1390105.6081,1294.99,10965.44,32641.08,31415.32,23953.63,26922.18,10864.16,8742.76
1390105.6101,1626.87,10973.69,32655.34,31431.25,23962.26,26948.5,10888.39,8748.72
1390105.6121,2142.62,11037.97,32663.83,31428.1,23959.02,26979.16,10987.43,8737.57
1390105.6141,2612.73,11129.52,32660.44,31405.93,23941.57,27015.88,11115.55,8713.91
1390105.6161,2849.01,11224.99,32658.63,31398.68,23936.51,27046.64,11229.52,8709.43
1390105.6181,2665.9,11260.32,32653.38,31397.49,23935.7,27042.58,11260.99,8709.62
1390105.6201,2094.51,11199.52,32627.78,31382.95,23922.73,26988.56,11164.33,8698.75
1390105.6221,1473.86,11072.83,32619.43,31378.65,23931.94,26934.96,10999.01,8707.0
1390105.6241,1252.08,10985.09,32631.45,31396.68,23946.96,26918.08,10881.38,8720.78
1390105.6261,1477.86,10968.54,32654.43,31416.37,23964.84,26955.89,10869.65,8736.33
1390105.6281,1956.03,11006.69,32658.77,31420.28,23957.21,27001.62,10944.89,8730.32
1390105.6301,2455.14,11081.08,32647.9,31405.26,23929.31,27010.25,11050.99,8704.47
1390105.6321,2777.29,11162.81,32624.53,31378.42,23896.51,26990.42,11157.56,8672.95
1390105.6341,2726.75,11211.11,32619.58,31365.3,23892.26,26995.38,11219.22,8667.99
1390105.6361,2299.83,11207.3,32625.39,31377.37,23909.52,26979.02,11181.74,8685.16
1390105.6381,1639.8,11106.4,32624.3,31383.71,23929.93,26941.35,11039.07,8700.66
1390105.6401,1282.17,11012.22,32643.85,31410.32,23958.88,26925.76,10914.57,8720.11
1390105.6421,1366.09,10974.5,32659.11,31432.06,23972.08,26933.39,10866.45,8737.61
1390105.6441,1792.72,10999.82,32666.97,31439.12,23970.51,26969.39,10918.09,8744.38
1390105.6461,2291.01,11059.05,32662.44,31423.52,23950.63,27001.48,11018.66,8728.46
1390105.6481,2721.12,11151.84,32652.53,31401.69,23924.74,27034.95,11146.83,8705.19
1390105.6501,2796.32,11209.16,32629.68,31382.23,23903.09,27043.39,11227.94,8684.68
1390105.6521,2491.14,11218.45,32617.48,31380.13,23898.51,27003.63,11211.44,8679.06
1390105.6541,1836.59,11135.67,32611.33,31376.79,23907.95,26960.85,11089.52,8688.74
1390105.6561,1346.11,11025.86,32622.39,31390.38,23933.13,26915.46,10939.07,8711.96
1390105.6581,1268.39,10962.63,32642.03,31414.66,23953.35,26898.1,10849.72,8733.51
1390105.6601,1623.44,10973.88,32658.53,31429.2,23958.83,26921.28,10883.05,8741.14
1390105.6621,2119.49,11037.16,32667.83,31437.16,23956.92,26967.58,10982.32,8739.95
1390105.6641,2615.98,11130.38,32659.68,31424.96,23936.42,27007.39,11113.07,8716.2
1390105.6661,2822.07,11206.34,32647.8,31402.73,23917.63,27026.47,11214.64,8693.12
1390105.6681,2654.6,11235.05,32633.45,31394.39,23907.86,27013.02,11237.0,8684.68
1390105.6701,2077.34,11187.84,32630.73,31394.87,23921.73,26982.84,11149.79,8690.41
1390105.6721,1482.63,11071.87,32637.03,31412.84,23945.86,26943.54,11003.59,8710.77
1390105.6741,1240.06,10980.66,32643.47,31429.2,23962.36,26914.12,10885.91,8732.13
1390105.6761,1484.06,10962.68,32658.77,31435.45,23971.13,26931.38,10866.79,8745.34
1390105.6781,1945.45,10998.01,32665.97,31426.0,23961.98,26952.56,10934.78,8741.19
1390105.6801,2459.53,11076.17,32663.78,31418.52,23939.61,26988.46,11052.9,8719.97
1390105.6821,2780.44,11157.9,32644.37,31399.83,23911.34,27012.73,11169.24,8690.64
1390105.6841,2741.48,11203.1,32625.2,31386.43,23901.89,27015.26,11228.85,8681.25
1390105.6861,2296.02,11195.23,32612.42,31377.27,23904.18,26987.84,11182.98,8688.02
1390105.6881,1642.37,11095.05,32613.0,31377.08,23917.73,26951.65,11039.59,8706.62
1390105.6901,1264.33,10990.05,32624.15,31395.01,23941.33,26922.8,10903.31,8724.98
1390105.6921,1342.96,10943.56,32636.79,31411.08,23953.49,26908.11,10842.52,8733.85
1390105.6941,1775.17,10978.18,32653.62,31422.19,23956.06,26939.49,10901.36,8733.46
1390105.6961,2288.2,11048.56,32660.63,31422.67,23947.34,26981.6,11013.22,8722.69
1390105.6981,2730.47,11154.46,32653.29,31419.95,23928.84,27019.41,11146.74,8696.94
1390105.7001,2824.69,11227.28,32650.57,31414.18,23925.74,27043.77,11242.34,8686.21
1390105.7021,2521.23,11236.0,32636.07,31403.93,23914.67,27014.31,11223.89,8684.4
1390105.7041,1853.61,11146.69,32626.82,31393.48,23922.92,26965.14,11096.62,8697.46
1390105.7061,1359.18,11033.39,32634.26,31399.78,23941.47,26919.51,10946.85,8723.98
1390105.7081,1268.15,10965.44,32656.01,31421.14,23965.12,26914.22,10861.4,8748.77
1390105.7101,1635.22,10977.98,32672.17,31431.39,23975.9,26955.89,10885.96,8755.16
1390105.7121,2114.68,11027.77,32673.74,31425.91,23965.93,27002.0,10977.41,8743.33
1390105.7141,2621.94,11126.71,32664.73,31421.19,23941.42,27029.76,11108.11,8720.35
1390105.7161,2811.86,11194.14,32644.28,31407.41,23914.53,27024.89,11209.73,8692.12
1390105.7181,2660.99,11234.9,32631.83,31402.64,23907.24,26999.38,11238.62,8679.44
1390105.7201,2071.95,11188.89,32632.35,31401.78,23922.4,26968.29,11155.23,8688.88
1390105.7221,1489.07,11071.73,32630.02,31400.16,23934.75,26927.43,10994.91,8698.8
1390105.7241,1215.6,10972.79,32639.79,31415.18,23952.92,26901.53,10863.97,8720.88
1390105.7261,1472.43,10964.35,32662.01,31433.25,23964.6,26921.66,10857.87,8740.33
1390105.7281,1920.8,11000.49,32662.01,31427.29,23956.78,26953.65,10931.4,8737.71
1390105.7301,2468.16,11087.71,32656.77,31414.8,23936.94,26992.28,11055.18,8722.21
1390105.7321,2777.0,11171.34,32646.28,31396.35,23919.73,27022.08,11173.39,8706.33
1390105.7341,2764.61,11225.18,32632.21,31384.38,23909.57,27024.03,11235.76,8692.46
1390105.7361,2286.58,11205.1,32615.71,31374.84,23904.23,26982.6,11173.77,8687.54
1390105.7381,1650.38,11101.63,32612.14,31371.22,23912.96,26938.16,11033.35,8700.66
1390105.7401,1252.94,10992.19,32624.44,31387.24,23936.7,26927.33,10912.56,8722.4
1390105.7421,1357.7,10953.57,32637.55,31411.89,23946.29,26933.96,10859.11,8733.51
1390105.7441,1764.87,10981.51,32649.66,31421.24,23951.29,26952.84,10903.79,8739.62
1390105.7461,2307.46,11061.1,32658.63,31424.67,23944.62,26989.99,11023.19,8731.56
1390105.7481,2708.96,11145.02,32642.99,31401.21,23921.21,27008.82,11146.31,8699.37
1390105.7501,2818.73,11208.92,32628.59,31385.19,23905.38,27016.83,11225.37,8684.06
1390105.7521,2497.86,11226.8,32622.63,31381.8,23903.56,26991.8,11216.74,8684.54
1390105.7541,1861.95,11150.03,32618.72,31381.99,23916.58,26951.98,11097.53,8695.03
1390105.7561,1338.67,11032.3,32626.35,31388.48,23935.99,26921.08,10953.48,8715.82
1390105.7581,1267.86,10962.68,32644.47,31405.6,23951.82,26915.03,10861.73,8731.08
1390105.7601,1606.66,10972.79,32658.77,31423.86,23964.6,26950.03,10880.76,8740.62
1390105.7621,2116.39,11029.48,32663.4,31429.58,23955.54,26999.05,10972.83,8732.37
1390105.7641,2605.01,11123.75,32655.2,31417.09,23937.99,27040.15,11103.63,8712.2
1390105.7661,2815.15,11196.9,32636.74,31392.86,23916.44,27027.42,11206.58,8691.45
1390105.7681,2648.16,11233.43,32622.63,31380.28,23901.61,27006.58,11235.29,8679.68
1390105.7701,2077.29,11180.59,32614.43,31376.6,23904.23,26960.33,11143.83,8682.63
1390105.7721,1471.42,11059.67,32617.05,31381.09,23918.2,26912.45,10986.85,8693.51
1390105.7741,1227.38,10967.73,32637.89,31403.69,23943.09,26900.58,10869.74,8720.3
1390105.7761,1470.57,10957.15,32650.9,31410.84,23952.39,26932.29,10865.64,8732.65
1390105.7781,1930.38,10991.77,32651.48,31406.41,23945.0,26960.19,10934.21,8726.31
1390105.7801,2459.43,11082.6,32653.53,31407.17,23931.89,26993.75,11055.28,8710.77
1390105.7821,2789.07,11175.2,32644.7,31396.01,23917.25,27033.95,11187.6,8696.03
1390105.7841,2774.05,11231.09,32625.82,31381.23,23903.28,27030.85,11251.74,8686.02
1390105.7861,2301.03,11202.24,32605.13,31370.5,23893.22,26986.65,11187.03,8676.91
1390105.7881,1649.57,11098.05,32597.64,31371.45,23902.13,26929.81,11039.88,8686.93
1390105.7901,1244.74,10986.28,32612.57,31395.06,23932.65,26899.01,10904.79,8716.58
1390105.7921,1351.5,10954.67,32638.46,31423.29,23954.97,26916.08,10866.88,8738.71
1390105.7941,1760.39,10981.04,32656.1,31433.49,23960.93,26964.24,10922.72,8741.76
1390105.7961,2301.17,11060.05,32658.1,31431.3,23946.19,27005.2,11029.2,8729.03
1390105.7981,2707.77,11148.41,32645.13,31415.42,23925.12,27032.52,11147.55,8707.38
1390105.8001,2820.54,11214.07,32627.3,31387.0,23906.04,27044.97,11233.95,8685.59
1390105.8021,2491.71,11215.5,32611.33,31369.74,23893.74,27013.73,11217.5,8675.1
1390105.8041,1865.39,11136.44,32606.51,31367.73,23904.33,26961.23,11091.62,8684.35
1390105.8061,1323.65,11012.51,32611.09,31382.85,23925.83,26901.92,10935.55,8704.71
1390105.8081,1250.65,10946.37,32621.72,31407.6,23940.71,26895.19,10847.95,8721.3
1390105.8101,1586.87,10955.86,32638.94,31423.62,23953.11,26941.49,10878.18,8735.56
1390105.8121,2108.38,11025.76,32651.62,31428.01,23954.06,26976.49,10980.85,8733.46
1390105.8141,2573.92,11110.21,32638.74,31409.79,23926.79,26996.04,11101.63,8706.14
1390105.8161,2806.33,11190.99,32617.19,31385.0,23899.75,27007.25,11208.73,8678.91
1390105.8181,2637.72,11225.84,32608.94,31384.28,23891.64,27003.2,11240.44,8667.76
1390105.8201,2087.35,11187.03,32610.99,31391.82,23906.42,26962.38,11160.33,8683.4
1390105.8221,1460.27,11063.67,32615.86,31388.48,23932.98,26913.55,11006.98,8703.57
1390105.8241,1217.46,10962.77,32620.15,31393.91,23946.57,26891.38,10889.58,8718.06
1390105.8261,1439.76,10949.33,32637.31,31413.03,23957.54,26925.14,10878.14,8740.09
1390105.8281,1932.29,10998.44,32651.86,31421.57,23955.25,26977.02,10951.95,8745.62
1390105.8301,2436.69,11071.73,32643.89,31406.55,23933.46,27009.4,11058.28,8723.64
1390105.8321,2775.05,11158.23,32623.58,31381.52,23904.37,27010.11,11171.39,8690.17
1390105.8341,2732.52,11205.72,32606.61,31367.83,23887.92,27001.53,11226.61,8674.24
1390105.8361,2301.6,11198.05,32602.7,31367.26,23890.93,26974.01,11187.94,8676.34
1390105.8382,1632.31,11094.05,32605.13,31372.98,23914.34,26927.81,11043.98,8697.18
1390105.8402,1256.85,10986.62,32617.29,31394.39,23933.94,26902.73,10904.22,8721.35
1390105.8422,1317.36,10935.45,32624.15,31413.32,23939.76,26902.92,10843.95,8728.08
1390105.8442,1750.37,10958.91,32632.69,31409.93,23938.23,26937.2,10893.78,8726.41
1390105.8462,2268.22,11037.06,32638.17,31400.26,23929.79,26981.02,11010.22,8719.25
1390105.8482,2706.0,11136.44,32629.4,31391.43,23909.05,27011.59,11137.39,8701.28
1390105.8502,2796.36,11204.2,32620.86,31385.43,23899.46,27028.18,11229.47,8690.02
1390105.8522,2508.55,11217.64,32612.38,31384.42,23894.79,27002.58,11219.93,8681.92
1390105.8542,1861.43,11138.15,32609.75,31376.51,23908.81,26943.93,11097.15,8694.75
1390105.8562,1360.94,11034.68,32630.21,31397.11,23942.85,26922.04,10959.44,8731.56
1390105.8582,1267.43,10961.25,32645.42,31414.18,23959.83,26916.41,10864.93,8746.43
1390105.8602,1624.49,10965.97,32661.16,31431.15,23966.65,26948.65,10884.57,8747.82
1390105.8622,2123.31,11032.44,32673.46,31436.4,23962.45,26999.52,10986.76,8740.81
1390105.8642,2620.32,11126.95,32668.98,31421.14,23947.19,27033.67,11113.84,8725.45
1390105.8662,2832.08,11200.0,32645.04,31393.72,23924.07,27036.72,11218.22,8702.28
1390105.8682,2679.3,11230.52,32630.64,31385.09,23913.91,27029.66,11248.02,8694.03
1390105.8702,2104.76,11181.55,32622.25,31382.76,23916.39,26980.69,11157.94,8700.42
1390105.8722,1495.98,11057.76,32622.53,31385.38,23928.07,26926.66,10998.77,8712.48
1390105.8742,1247.36,10968.92,32638.36,31401.88,23945.0,26912.36,10891.39,8732.46
1390105.8762,1462.98,10945.7,32650.28,31415.66,23949.86,26920.23,10865.83,8734.42
1390105.8782,1921.32,10984.71,32646.28,31413.99,23941.04,26948.65,10931.4,8724.26
1390105.8802,2445.75,11070.54,32642.89,31410.27,23924.21,26990.56,11055.14,8711.24
1390105.8822,2789.55,11167.81,32637.65,31401.3,23910.38,27021.79,11177.73,8697.89
1390105.8842,2760.55,11215.31,32630.16,31392.72,23905.09,27029.61,11243.73,8689.31
1390105.8862,2328.54,11207.77,32623.87,31389.81,23910.33,27003.39,11199.9,8683.16
1390105.8882,1668.98,11107.11,32623.68,31392.53,23932.75,26952.56,11052.8,8696.08
1390105.8902,1280.93,11005.45,32636.22,31408.12,23957.4,26924.61,10918.38,8724.6
1390105.8922,1346.59,10955.05,32652.0,31428.87,23969.46,26910.4,10859.16,8746.24
1390105.8942,1774.69,10981.94,32661.82,31436.49,23967.65,26940.73,10913.09,8754.3
1390105.8962,2279.95,11045.41,32665.54,31429.34,23957.3,26990.8,11020.61,8744.43
1390105.8982,2717.92,11136.77,32655.72,31417.66,23932.36,27019.69,11142.97,8718.16
1390105.9002,2805.9,11198.0,32646.33,31402.59,23918.11,27032.09,11230.28,8702.37
1390105.9022,2530.19,11226.32,32642.61,31400.02,23918.92,27005.34,11224.8,8700.85
1390105.9042,1884.32,11152.75,32644.32,31401.59,23938.85,26961.28,11101.44,8717.63
1390105.9062,1385.4,11042.64,32649.38,31414.89,23956.97,26924.95,10956.19,8736.75
1390105.9082,1267.15,10960.96,32659.44,31423.14,23965.89,26912.17,10858.92,8741.9
1390105.9102,1623.11,10969.64,32676.89,31430.2,23964.88,26941.59,10878.47,8732.75
1390105.9122,2108.72,11033.3,32688.1,31435.16,23957.06,26977.45,10979.65,8727.55
1390105.9142,2610.87,11125.47,32673.22,31422.29,23927.64,27006.77,11104.39,8710.72
1390105.9162,2802.42,11187.36,32645.23,31394.1,23900.61,27017.6,11192.94,8691.69
1390105.9182,2666.14,11217.12,32628.97,31374.98,23891.59,26999.38,11217.6,8678.72
1390105.9202,2088.74,11172.25,32626.68,31378.32,23903.9,26956.32,11133.58,8689.93
1390105.9222,1513.77,11075.31,32631.02,31399.21,23935.7,26928.81,10997.44,8721.78
1390105.9242,1236.15,10977.7,32638.79,31413.13,23957.78,26918.65,10881.33,8744.34
1390105.9262,1480.63,10960.91,32650.81,31425.29,23960.78,26934.87,10865.17,8748.25
1390105.9282,1917.17,10993.15,32649.81,31419.19,23951.77,26959.37,10929.4,8736.95
1390105.9302,2452.14,11079.98,32647.57,31410.13,23936.7,26983.74,11042.88,8718.63
1390105.9322,2767.37,11163.38,32635.84,31390.24,23914.86,27012.26,11158.75,8695.22
1390105.9342,2773.19,11222.89,32626.06,31384.61,23901.94,27015.36,11229.85,8685.54
1390105.9362,2324.68,11215.64,32621.82,31386.67,23907.62,26981.6,11184.6,8691.12
1390105.9382,1691.06,11120.46,32620.67,31393.72,23925.55,26938.2,11047.6,8705.9
1390105.9402,1274.06,11003.64,32629.49,31404.45,23945.76,26908.69,10911.85,8724.4
1390105.9422,1360.56,10959.58,32644.7,31420.85,23955.68,26915.36,10856.77,8736.56
1390105.9442,1761.01,10980.7,32654.1,31420.66,23957.49,26950.55,10902.69,8741.67
1390105.9462,2292.59,11051.51,32660.87,31417.04,23948.34,26993.13,11013.37,8733.94
1390105.9482,2709.77,11151.22,32659.58,31409.84,23929.36,27019.93,11151.22,8715.58
1390105.9502,2836.94,11224.46,32654.34,31409.36,23917.87,27041.96,11244.2,8704.85
1390105.9522,2535.3,11240.63,32639.46,31403.45,23910.53,27019.74,11233.47,8699.66
1390105.9542,1908.25,11164.9,32632.4,31401.16,23921.68,26970.96,11114.74,8709.38
1390105.9562,1382.16,11047.89,32642.08,31411.56,23949.39,26930.72,10967.88,8731.46
1390105.9582,1295.19,10978.27,32657.72,31424.48,23968.41,26918.13,10876.51,8747.63
1390105.9602,1623.39,10980.94,32665.69,31424.96,23964.69,26946.36,10892.54,8743.24
1390105.9622,2115.92,11024.76,32661.3,31412.22,23943.38,26964.38,10971.45,8723.07
1390105.9642,2603.05,11118.94,32656.1,31403.74,23926.45,26994.47,11100.1,8708.0
1390105.9662,2828.07,11197.66,32641.08,31393.96,23910.76,27017.07,11203.96,8693.17
1390105.9682,2679.73,11231.33,32623.58,31386.09,23896.6,27011.45,11235.0,8676.58
1390105.9702,2117.06,11187.7,32613.42,31388.33,23900.46,26973.44,11150.17,8680.96
1390105.9722,1516.01,11079.74,32608.66,31388.0,23913.15,26938.35,11006.31,8693.89
1390105.9742,1256.8,10990.95,32627.4,31401.16,23935.51,26929.05,10899.02,8716.97
1390105.9762,1492.17,10987.24,32652.1,31418.14,23949.82,26947.79,10890.39,8736.42
1390105.9782,1937.68,11018.56,32662.06,31423.72,23951.68,26970.44,10951.23,8737.66
1390105.9802,2449.66,11087.66,32655.39,31409.41,23937.99,26986.89,11055.47,8720.21
1390105.9822,2772.0,11166.96,32646.61,31396.15,23924.97,27008.82,11171.82,8706.52
1390105.9842,2768.9,11220.89,32631.88,31380.23,23910.24,27017.26,11238.0,8690.69
1390105.9862,2331.83,11213.64,32624.3,31378.56,23914.77,26997.38,11200.24,8692.93
1390105.9882,1694.92,11120.46,32625.68,31379.47,23931.46,26958.04,11068.87,8705.57
1390105.9902,1278.54,11004.74,32642.03,31392.86,23958.4,26925.47,10926.25,8731.75
1390105.9922,1349.69,10950.61,32650.14,31401.26,23961.26,26912.74,10850.76,8736.18
1390105.9942,1728.82,10954.19,32645.9,31398.92,23950.96,26932.53,10882.47,8725.93
1390105.9962,2258.16,11027.96,32646.56,31395.82,23939.99,26973.2,10989.62,8710.77
1390105.9982,2678.3,11123.13,32646.76,31388.38,23927.74,27003.91,11114.07,8695.17
1390106.0002,2812.2,11190.84,32637.55,31374.12,23915.34,27010.92,11210.73,8679.25
1390106.0022,2505.11,11200.38,32625.73,31361.25,23910.91,26987.37,11199.48,8674.1
1390106.0042,1886.51,11133.15,32616.67,31353.38,23919.54,26947.41,11089.09,8682.16
1390106.0062,1345.49,11010.41,32614.76,31354.14,23934.51,26907.78,10934.59,8692.22
1390106.0082,1260.09,10938.65,32628.02,31367.73,23951.15,26895.76,10837.75,8704.47
1390106.0102,1574.23,10938.03,32644.61,31376.56,23956.4,26928.57,10859.06,8711.15
1390106.0122,2081.59,10999.01,32646.23,31375.79,23943.05,26970.72,10959.77,8701.52
1390106.0142,2556.18,11087.18,32638.98,31363.59,23921.78,26997.28,11087.04,8678.15
1390106.0162,2806.0,11173.54,32630.26,31352.95,23907.95,27030.33,11207.72,8664.32
1390106.0182,2644.73,11206.82,32624.63,31351.05,23907.76,27029.14,11238.86,8661.99
1390106.0202,2106.76,11163.67,32618.91,31355.48,23917.96,26986.55,11149.07,8670.9
1390106.0222,1478.1,11042.31,32613.42,31359.01,23931.55,26931.24,10991.72,8684.83
1390106.0242,1213.31,10935.98,32608.37,31350.0,23931.12,26872.69,10850.14,8686.26
1390106.0262,1400.33,10898.69,32613.04,31344.42,23929.5,26889.04,10818.15,8684.35
1390106.0282,1875.16,10939.07,32625.06,31344.37,23925.12,26915.36,10889.48,8680.3
1390106.0302,2377.22,11019.76,32625.11,31337.36,23913.77,26947.79,11008.12,8665.85
1390106.0322,2743.44,11121.23,32624.49,31335.02,23903.52,26987.94,11132.67,8652.07
1390106.0342,2720.88,11172.92,32615.71,31324.25,23891.93,26992.85,11191.8,8640.05
1390106.0362,2310.23,11165.38,32608.27,31320.58,23892.36,26971.49,11153.27,8639.0
1390106.0382,1651.91,11069.11,32615.0,31327.63,23916.87,26938.44,11020.95,8662.27
1390106.0402,1261.23,10960.72,32623.39,31344.32,23939.23,26900.58,10886.38,8682.2
1390106.0422,1303.53,10911.23,32635.36,31358.25,23954.78,26880.98,10826.3,8696.7
1390106.0442,1718.19,10924.48,32640.51,31358.63,23949.58,26902.15,10865.12,8690.31
1390106.0462,2225.21,10990.76,32640.37,31351.14,23934.32,26939.44,10967.45,8672.38
1390106.0482,2683.07,11098.53,32637.55,31346.09,23919.01,26989.13,11105.54,8657.89
1390106.0502,2793.26,11164.81,32624.11,31331.5,23906.52,27010.78,11198.57,8647.54
1390106.0522,2526.81,11194.75,32627.78,31339.46,23915.29,27007.25,11215.21,8655.45
1390106.0542,1877.69,11115.6,32620.05,31333.02,23926.4,26963.76,11095.24,8664.51
1390106.0562,1348.78,10987.04,32613.42,31330.64,23934.27,26915.93,10930.35,8670.28
1390106.0582,1220.8,10902.12,32614.9,31332.73,23937.85,26866.25,10820.1,8672.29
1390106.0602,1547.29,10893.78,32621.53,31336.22,23935.37,26873.02,10824.63,8667.14
1390106.0622,2039.34,10947.66,32622.29,31327.35,23923.92,26912.41,10910.46,8656.55
1390106.0642,2547.41,11042.21,32624.06,31323.96,23912.48,26952.65,11036.87,8645.58
1390106.0662,2782.01,11129.09,32619.24,31315.52,23901.51,26982.69,11160.47,8637.48
1390106.0682,2648.5,11167.34,32616.19,31318.81,23899.32,26983.5,11209.39,8632.76
1390106.0702,2091.36,11121.75,32613.04,31317.19,23901.99,26942.21,11123.71,8638.29
1390106.0722,1478.48,11012.94,32618.86,31325.77,23920.97,26904.59,10969.64,8660.13
1390106.0742,1227.43,10932.11,32642.13,31346.52,23950.53,26904.82,10858.92,8689.07
1390106.0762,1443.67,10917.95,32663.3,31366.21,23973.42,26935.49,10844.8,8711.1
1390106.0782,1896.52,10955.0,32668.5,31365.06,23965.27,26950.08,10904.12,8704.28
1390106.0802,2400.45,11021.09,32656.58,31348.28,23937.75,26961.38,11011.41,8677.15
1390106.0822,2745.2,11111.93,32638.84,31333.97,23914.96,26982.26,11133.91,8652.88
1390106.0842,2727.27,11158.52,32619.38,31324.1,23898.08,26983.07,11198.09,8624.03
1390106.0862,2322.1,11161.81,32623.44,31339.6,23906.14,26964.76,11166.24,8626.32
1390106.0882,1661.78,11063.05,32621.48,31347.42,23927.55,26920.56,11032.53,8651.59
1390106.0902,1248.22,10945.61,32618.81,31350.43,23941.0,26883.75,10889.58,8673.0
1390106.0922,1278.07,10883.05,32622.68,31344.32,23942.38,26875.88,10813.57,8678.06
1390106.0942,1689.39,10897.54,32618.57,31328.35,23924.93,26899.63,10847.14,8666.61
1390106.0962,2199.32,10969.02,32620.2,31326.68,23910.1,26937.3,10945.04,8650.83
1390106.0982,2658.99,11079.74,32619.34,31326.97,23894.07,26978.35,11084.41,8622.6
1390106.1002,2762.17,11140.35,32609.13,31313.33,23881.25,27000.48,11183.45,8609.68
1390106.1022,2499.39,11158.56,32591.06,31303.55,23870.14,26979.35,11188.27,8611.92
1390106.1042,1846.46,11080.03,32583.29,31297.21,23878.43,26916.7,11055.14,8629.04
1390106.1062,1331.47,10971.31,32597.55,31309.89,23907.09,26869.92,10910.18,8655.74
1390106.1082,1201.63,10896.87,32608.85,31325.2,23923.59,26867.11,10817.2,8673.1
1390106.1102,1550.25,10909.75,32617.62,31335.55,23921.64,26899.39,10834.98,8671.86
1390106.1122,2029.75,10973.55,32632.4,31344.85,23919.87,26957.75,10938.36,8664.08
1390106.1142,2551.94,11072.35,32635.36,31343.42,23904.04,27005.06,11072.78,8644.25
1390106.1162,2767.32,11142.4,32623.34,31325.87,23886.73,27004.91,11172.2,8627.22
1390106.1182,2662.52,11181.93,32610.28,31312.76,23878.86,26995.47,11214.88,8622.27
1390106.1202,2088.5,11139.2,32598.93,31299.07,23883.25,26945.21,11134.58,8629.8
1390106.1222,1490.74,11029.29,32598.69,31297.69,23899.84,26903.2,10993.2,8649.3
1390106.1242,1196.0,10922.1,32607.27,31316.19,23918.35,26875.55,10858.73,8665.61
1390106.1262,1423.26,10903.17,32623.96,31346.09,23927.36,26894.0,10841.42,8667.8
1390106.1282,1859.0,10936.21,32626.2,31345.32,23914.48,26929.81,10909.37,8656.07
1390106.1302,2404.5,11026.29,32626.82,31342.8,23898.03,26968.67,11032.39,8636.62
1390106.1322,2730.18,11111.88,32611.09,31314.42,23875.67,26997.43,11146.36,8614.97
1390106.1342,2741.86,11160.8,32593.68,31284.24,23857.98,26998.95,11209.39,8600.52
1390106.1362,2305.56,11155.27,32586.48,31281.43,23862.17,26951.84,11164.29,8608.39
1390106.1382,1672.55,11066.77,32585.82,31294.73,23883.54,26904.59,11033.73,8629.28
1390106.1402,1241.97,10958.48,32594.49,31309.51,23907.38,26887.42,10901.55,8651.16
1390106.1422,1311.59,10913.52,32614.04,31325.87,23923.59,26893.33,10842.09,8665.8
1390106.1442,1707.84,10934.54,32629.88,31334.21,23927.88,26925.52,10880.66,8666.13
1390106.1462,2254.82,11018.33,32640.51,31352.05,23919.87,26979.12,10995.06,8661.84
1390106.1482,2674.96,11107.83,32630.64,31342.89,23895.79,27008.58,11120.23,8637.24
1390106.1502,2801.85,11169.1,32617.24,31326.39,23877.67,27015.83,11205.34,8615.21
1390106.1522,2520.75,11192.47,32607.46,31323.39,23872.04,26995.9,11210.4,8605.29
1390106.1542,1898.19,11124.09,32602.93,31331.3,23883.3,26950.89,11098.1,8616.97
1390106.1562,1354.12,11007.07,32607.23,31337.07,23902.09,26913.07,10949.42,8636.76
1390106.1582,1240.11,10922.29,32612.42,31338.27,23910.0,26894.05,10847.9,8635.67
1390106.1602,1552.87,10916.57,32616.48,31335.79,23907.81,26904.78,10845.71,8636.14
1390106.1622,2038.29,10965.63,32614.81,31326.3,23895.46,26940.54,10929.49,8641.01
1390106.1642,2525.04,11053.04,32601.5,31298.12,23868.04,26978.73,11058.47,8622.6
1390106.1662,2761.08,11122.8,32586.72,31276.28,23847.54,27001.19,11159.95,8603.24
1390106.1682,2635.53,11166.81,32579.38,31272.13,23840.91,26995.38,11199.62,8600.28
1390106.1702,2088.88,11128.24,32575.37,31277.99,23850.49,26940.54,11112.83,8610.11
1390106.1722,1479.67,11024.57,32577.95,31288.77,23874.33,26901.01,10967.88,8629.94
1390106.1742,1193.81,10929.01,32590.54,31308.32,23897.7,26879.17,10846.66,8650.73
1390106.1762,1405.38,10920.48,32610.37,31329.35,23912.67,26883.18,10832.69,8662.99
1390106.1782,1855.42,10957.91,32621.96,31337.12,23909.67,26922.71,10904.36,8660.17
1390106.1802,2394.63,11047.79,32626.44,31337.6,23896.41,26968.24,11023.95,8647.82
1390106.1822,2729.56,11134.67,32621.86,31327.87,23882.3,26995.57,11139.11,8633.23
1390106.1842,2754.69,11200.14,32615.47,31324.1,23882.11,27007.39,11219.88,8630.47
1390106.1862,2326.82,11188.94,32600.31,31315.52,23877.53,26972.06,11177.68,8630.94
1390106.1882,1683.33,11092.38,32592.35,31307.46,23884.92,26923.71,11040.12,8635.67
1390106.1902,1257.8,10981.7,32602.6,31322.15,23907.57,26897.24,10903.12,8652.12
1390106.1922,1324.8,10940.7,32617.53,31345.47,23918.58,26898.29,10846.81,8658.6
1390106.1942,1704.26,10947.71,32621.34,31346.04,23910.1,26920.42,10879.23,8650.69
1390106.1962,2227.02,11015.13,32620.72,31339.36,23895.03,26959.04,10982.66,8642.05
1390106.1982,2644.54,11099.58,32606.89,31320.43,23871.62,26987.65,11105.54,8624.7
1390106.2002,2784.78,11165.57,32588.63,31296.59,23850.35,26999.52,11198.95,8607.2
1390106.2022,2484.18,11172.82,32571.61,31283.62,23839.81,26972.68,11193.52,8595.99
1390106.2042,1872.54,11108.16,32567.84,31289.1,23849.87,26923.9,11083.18,8602.1
1390106.2062,1334.38,11002.68,32585.48,31317.52,23881.77,26895.91,10940.55,8633.33
1390106.2082,1238.35,10936.93,32604.51,31341.94,23902.09,26880.7,10851.05,8651.69
1390106.2102,1544.48,10937.55,32622.72,31351.86,23912.86,26907.54,10864.21,8664.08
1390106.2122,2047.4,10991.0,32630.11,31348.33,23907.57,26951.79,10960.48,8659.75
1390106.2142,2525.85,11074.26,32628.73,31334.5,23891.4,26989.99,11079.84,8643.82
1390106.2162,2779.39,11149.6,32609.18,31316.09,23871.57,27013.69,11187.65,8622.84
1390106.2182,2632.05,11176.73,32591.97,31303.84,23858.45,27008.2,11212.68,8608.01
1390106.2202,2118.68,11147.79,32592.25,31310.42,23867.13,26979.88,11142.88,8617.16
1390106.2222,1494.31,11041.45,32597.21,31318.95,23889.5,26930.29,11001.06,8640.0
1390106.2242,1233.86,10954.05,32610.09,31341.22,23912.1,26900.1,10882.33,8663.56
1390106.2262,1420.26,10928.82,32624.87,31357.24,23920.78,26913.6,10851.05,8673.1
1390106.2282,1880.6,10958.86,32627.73,31352.43,23906.66,26941.59,10911.23,8658.98
1390106.2302,2374.74,11027.1,32621.82,31339.6,23887.83,26965.62,11019.9,8635.33
1390106.2322,2740.62,11115.03,32607.03,31325.15,23864.65,26993.9,11141.21,8615.54
1390106.2342,2730.89,11161.52,32589.68,31303.36,23848.16,27001.1,11204.91,8601.29
1390106.2362,2342.13,11164.38,32583.1,31298.69,23851.64,26988.18,11181.98,8606.01
1390106.2382,1677.51,11070.68,32584.48,31298.36,23871.95,26949.12,11046.79,8626.37
1390106.2402,1273.11,10966.3,32596.78,31311.56,23894.74,26914.65,10913.95,8647.25
1390106.2422,1302.77,10917.14,32613.47,31325.77,23907.38,26887.61,10848.0,8654.36
1390106.2442,1715.76,10939.98,32628.02,31333.31,23911.43,26917.65,10882.95,8653.64
1390106.2462,2218.1,11007.26,32632.07,31333.88,23899.8,26960.66,10987.0,8643.68
1390106.2482,2665.04,11095.48,32622.53,31323.39,23877.43,26991.37,11108.69,8623.08
1390106.2502,2775.86,11159.85,32612.66,31310.47,23866.89,27006.01,11201.19,8610.73
1390106.2522,2520.61,11176.4,32598.45,31306.46,23857.36,26979.83,11198.05,8603.72
1390106.2542,1891.71,11109.88,32589.58,31312.18,23864.46,26929.72,11088.94,8615.69
1390106.2562,1364.95,10994.67,32592.59,31320.62,23881.87,26883.51,10936.88,8636.38
1390106.2582,1235.58,10926.63,32604.65,31336.84,23899.94,26874.21,10840.85,8654.83
1390106.2602,1556.35,10931.06,32620.48,31346.61,23906.71,26903.97,10857.15,8656.88
1390106.2622,2040.62,10985.14,32627.01,31348.09,23901.32,26943.93,10947.51,8650.02
1390106.2642,2532.1,11065.34,32613.81,31335.07,23874.62,26971.06,11061.15,8629.37
1390106.2662,2771.19,11140.68,32601.69,31322.44,23855.59,26993.61,11165.52,8615.21
1390106.2682,2647.83,11171.06,32588.82,31312.04,23845.15,26987.51,11192.37,8604.29
1390106.2702,2112.53,11136.25,32583.72,31308.75,23852.11,26942.88,11114.17,8603.96
1390106.2722,1505.66,11032.68,32592.01,31317.29,23877.1,26899.34,10970.59,8626.41
1390106.2742,1239.2,10955.34,32610.47,31342.7,23903.37,26889.14,10865.31,8654.79
1390106.2762,1441.15,10937.84,32629.06,31366.02,23917.39,26903.54,10848.19,8667.85
1390106.2782,1889.56,10967.16,32630.83,31356.15,23909.05,26940.16,10914.71,8656.26
1390106.2802,2389.0,11031.44,32624.73,31345.18,23887.16,26973.39,11026.96,8633.28
1390106.2822,2737.33,11111.88,32606.51,31326.01,23861.79,26991.51,11135.05,8607.1
1390106.2842,2738.48,11163.9,32597.26,31312.61,23854.78,26998.57,11201.34,8604.24
1390106.2862,2342.65,11160.9,32587.58,31298.59,23849.97,26964.62,11168.86,8602.72
1390106.2882,1678.75,11058.81,32578.14,31290.25,23854.31,26912.36,11029.2,8610.92
1390106.2902,1274.16,10961.68,32588.44,31308.32,23877.43,26890.57,10894.54,8635.47
1390106.2922,1298.24,10907.79,32597.45,31326.58,23895.22,26888.99,10828.54,8650.83
1390106.2942,1709.51,10932.73,32611.9,31333.31,23898.18,26922.75,10874.18,8652.31
1390106.2962,2207.23,10992.72,32617.29,31330.54,23886.83,26956.75,10967.21,8637.86
1390106.2982,2656.08,11087.09,32609.75,31326.77,23865.37,26985.7,11090.33,8621.03
1390106.3002,2765.47,11146.74,32602.79,31323.77,23854.54,27004.2,11180.45,8611.82
1390106.3022,2522.42,11172.2,32595.69,31325.92,23852.49,26982.26,11188.08,8607.77
1390106.3042,1884.51,11100.39,32589.3,31325.53,23863.75,26936.11,11078.79,8619.55
1390106.3062,1378.11,11002.49,32603.98,31336.74,23894.03,26905.83,10944.75,8649.21
1390106.3082,1248.69,10942.84,32630.4,31360.92,23924.45,26904.06,10861.45,8678.1
1390106.3102,1579.71,10946.13,32641.51,31369.36,23924.21,26920.51,10864.88,8678.25
1390106.3122,2033.14,10985.09,32637.03,31360.2,23907.47,26947.36,10939.79,8665.9
1390106.3142,2543.69,11076.26,32631.26,31350.33,23886.59,26980.78,11066.34,8645.58
1390106.3162,2764.7,11145.69,32615.0,31327.78,23867.47,27000.14,11169.82,8624.79
1390106.3182,2665.66,11185.22,32600.69,31315.52,23854.07,26992.94,11207.72,8612.78
1390106.3202,2111.72,11145.12,32591.3,31310.28,23855.59,26951.94,11129.81,8616.31
1390106.3222,1527.17,11046.98,32598.21,31324.15,23880.34,26917.94,10997.58,8640.24
1390106.3242,1230.05,10958.91,32619.77,31347.8,23911.67,26902.39,10881.62,8669.52
1390106.3262,1442.24,10941.46,32637.08,31366.59,23919.3,26908.97,10858.01,8678.82
1390106.3282,1855.04,10958.48,32634.41,31359.1,23903.71,26931.1,10896.97,8662.65
1390106.3302,2381.94,11026.29,32622.29,31343.89,23879.15,26956.23,10998.97,8641.24
1390106.3322,2714.63,11105.68,32606.99,31323.82,23854.54,26986.94,11120.03,8616.35
1390106.3342,2745.77,11166.81,32601.31,31317.86,23850.16,27002.48,11197.81,8609.53
1390106.3362,2330.78,11163.05,32599.31,31320.05,23860.17,26976.97,11168.15,8615.45
1390106.3382,1701.55,11074.59,32598.45,31321.91,23875.81,26923.8,11033.01,8631.14
1390106.3402,1264.19,10970.5,32609.04,31333.45,23898.51,26881.27,10897.88,8655.6
1390106.3422,1309.87,10921.19,32617.33,31347.56,23908.9,26873.73,10832.6,8667.09
1390106.3442,1671.27,10925.72,32611.09,31341.03,23895.6,26897.39,10867.55,8652.45
1390106.3462,2192.02,10989.43,32610.94,31338.84,23881.25,26933.15,10969.45,8639.05
1390106.3482,2624.94,11079.36,32610.32,31334.36,23865.94,26962.0,11082.17,8622.08
1390106.3502,2765.04,11142.26,32604.75,31325.01,23852.73,26980.4,11169.1,8611.16
1390106.3522,2492.24,11157.04,32590.2,31318.67,23844.39,26959.37,11167.48,8603.48
1390106.3542,1886.65,11097.34,32586.82,31324.68,23860.65,26918.56,11071.35,8620.93
1390106.3562,1355.36,10997.96,32595.78,31336.5,23887.4,26894.76,10950.09,8647.01
1390106.3582,1241.35,10935.5,32614.62,31354.86,23908.28,26896.53,10866.21,8668.85
1390106.3602,1560.74,10951.0,32639.51,31370.93,23924.12,26932.15,10883.28,8686.26
1390106.3622,2047.63,11000.06,32645.47,31368.5,23916.3,26972.01,10969.26,8682.16
1390106.3642,2549.6,11091.09,32648.04,31368.69,23903.9,27017.55,11097.72,8669.09
1390106.3662,2795.36,11160.18,32633.21,31354.76,23887.59,27037.15,11202.15,8648.4
1390106.3682,2673.05,11190.42,32613.19,31334.93,23870.28,27020.12,11236.24,8629.8
1390106.3702,2142.24,11155.89,32613.23,31331.02,23880.1,26981.12,11162.57,8640.1
1390106.3722,1535.18,11059.43,32617.91,31343.89,23902.09,26945.45,11020.04,8663.37
1390106.3742,1243.21,10967.3,32629.59,31364.92,23920.68,26932.0,10900.16,8682.16
1390106.3762,1432.61,10940.93,32635.41,31370.83,23922.78,26930.48,10864.4,8683.83
1390106.3782,1855.61,10960.63,32636.74,31364.68,23915.58,26947.93,10915.38,8678.87
1390106.3802,2377.41,11033.87,32633.45,31352.81,23897.13,26986.98,11023.24,8662.18
1390106.3822,2722.65,11111.69,32623.82,31336.5,23876.43,27024.27,11139.01,8639.77
1390106.3842,2750.59,11171.1,32614.14,31334.88,23865.18,27026.47,11213.21,8630.8
1390106.3862,2330.68,11155.8,32593.87,31324.63,23858.6,26959.61,11166.91,8622.98
1390106.3882,1684.86,11065.91,32579.47,31318.14,23866.8,26887.13,11029.53,8630.66
1390106.3902,1250.41,10964.59,32592.01,31332.97,23894.89,26866.34,10898.5,8655.84
1390106.3922,1302.86,10923.39,32609.32,31348.52,23908.67,26869.11,10834.27,8669.52
1390106.3942,1680.04,10933.11,32616.52,31343.18,23905.18,26902.92,10875.75,8665.04
1390106.3962,2202.89,10995.96,32616.33,31336.41,23890.07,26936.25,10974.65,8648.68
1390106.3982,2615.83,11075.5,32605.03,31320.15,23864.46,26960.66,11088.85,8623.41
1390106.4002,2765.75,11144.02,32595.21,31310.71,23849.3,26979.74,11183.02,8607.1
1390106.4022,2492.81,11162.23,32586.63,31304.65,23844.91,26963.62,11191.32,8600.52
1390106.4042,1891.8,11101.25,32582.14,31303.79,23857.5,26920.56,11084.99,8611.78
1390106.4062,1336.15,10990.24,32592.01,31319.62,23885.06,26888.66,10933.07,8641.15
1390106.4082,1226.23,10923.39,32611.52,31345.13,23906.42,26876.74,10837.65,8662.08
1390106.4102,1519.11,10920.72,32629.02,31356.48,23913.39,26906.26,10847.14,8668.38
1390106.4122,2021.89,10976.98,32636.65,31361.68,23905.38,26951.6,10934.31,8664.28
1390106.4142,2507.59,11059.24,32627.25,31352.05,23881.25,26975.59,11048.51,8642.72
1390106.4162,2782.44,11142.35,32616.67,31338.03,23863.37,26990.85,11158.94,8623.98
1390106.4182,2639.2,11164.9,32597.5,31315.09,23848.82,26973.39,11187.65,8608.2
1390106.4202,2112.82,11125.47,32586.53,31305.27,23852.35,26933.2,11112.74,8610.63
1390106.4222,1480.53,11020.85,32588.63,31311.8,23876.57,26890.95,10972.22,8637.57
1390106.4242,1217.56,10944.56,32609.23,31341.18,23907.0,26872.26,10866.31,8668.47
1390106.4262,1394.22,10924.77,32624.15,31358.96,23919.82,26899.87,10842.9,8679.96
1390106.4282,1854.37,10960.63,32636.41,31366.88,23920.54,26938.49,10906.27,8677.53
1390106.4302,2359.1,11029.67,32633.21,31355.19,23901.94,26960.47,11012.51,8655.45
1390106.4322,2731.13,11110.88,32620.82,31336.84,23876.05,26967.05,11127.95,8629.94
1390106.4342,2723.65,11153.99,32603.94,31315.24,23856.6,26966.43,11190.27,8612.92
1390106.4362,2325.15,11146.21,32586.24,31307.75,23851.49,26941.97,11157.08,8609.44
1390106.4382,1670.27,11057.33,32585.1,31317.76,23870.85,26903.11,11027.53,8627.08
1390106.4402,1265.81,10961.87,32602.22,31343.18,23897.84,26886.9,10901.69,8656.03
1390106.4422,1287.32,10918.9,32621.82,31366.16,23915.68,26894.43,10842.23,8676.29
1390106.4442,1679.33,10930.4,32622.72,31363.4,23905.66,26926.81,10876.99,8667.28
1390106.4462,2175.38,10988.52,32616.33,31352.33,23884.82,26952.79,10972.22,8647.2
1390106.4482,2641.01,11078.84,32614.95,31347.71,23867.18,26976.59,11092.28,8630.94
1390106.4502,2766.66,11141.11,32600.07,31324.06,23853.97,26991.32,11183.5,8615.54
1390106.4522,2519.18,11160.76,32591.63,31309.37,23852.07,26972.77,11190.08,8612.06
1390106.4542,1895.62,11097.67,32587.58,31302.6,23865.89,26932.48,11085.56,8623.41
1390106.4562,1361.8,10986.95,32591.78,31313.57,23885.54,26897.96,10938.65,8641.43
1390106.4582,1225.66,10917.57,32603.17,31330.26,23901.89,26889.23,10843.18,8657.36
1390106.4602,1533.94,10918.43,32615.95,31344.13,23905.47,26914.41,10855.58,8662.42
1390106.4622,2011.68,10971.79,32621.77,31343.89,23892.93,26947.45,10941.41,8651.31
1390106.4642,2518.61,11060.48,32619.67,31337.74,23878.96,26987.08,11060.81,8633.57
1390106.4662,2779.2,11141.44,32607.23,31322.29,23864.22,27011.78,11176.02,8620.17
1390106.4682,2650.88,11166.24,32590.58,31306.65,23849.44,26994.66,11206.68,8604.38
1390106.4702,2114.58,11124.23,32578.04,31303.12,23853.45,26944.12,11122.56,8603.29
1390106.4722,1500.03,11027.0,32590.77,31326.73,23884.25,26908.21,10985.61,8635.57
1390106.4742,1217.75,10944.37,32610.32,31344.94,23910.95,26883.27,10873.27,8661.99
1390106.4762,1392.98,10910.42,32618.96,31345.8,23914.39,26890.09,10839.8,8668.81
1390106.4782,1848.55,10947.47,32630.73,31348.9,23910.1,26929.29,10903.98,8664.37
1390106.4802,2362.87,11023.24,32632.26,31350.23,23900.42,26966.19,11015.23,8653.78
1390106.4822,2727.56,11112.6,32616.19,31333.4,23876.57,26989.27,11141.49,8631.04
1390106.4842,2727.7,11153.99,32603.22,31316.71,23860.12,26989.13,11206.96,8615.97
1390106.4862,2344.66,11152.89,32595.78,31308.56,23860.98,26963.28,11173.06,8614.68
1390106.4882,1674.18,11053.85,32587.91,31303.12,23869.95,26899.44,11032.73,8625.17
1390106.4902,1257.37,10956.53,32597.12,31320.58,23888.3,26868.3,10896.83,8645.82
1390106.4922,1272.58,10905.31,32612.71,31337.79,23904.42,26877.12,10828.64,8660.17
1390106.4942,1687.24,10932.07,32622.29,31346.9,23905.09,26911.17,10871.94,8661.32
1390106.4962,2191.88,10999.11,32629.68,31354.48,23901.27,26955.56,10976.94,8656.69
1390106.4982,2660.85,11099.48,32628.49,31353.43,23884.59,26988.18,11109.88,8642.05
1390106.5002,2770.57,11155.85,32611.23,31334.31,23865.65,26992.28,11186.03,8626.99
1390106.5022,2532.05,11173.06,32593.21,31320.48,23854.74,26973.44,11188.46,8616.59
1390106.5042,1888.42,11101.77,32585.15,31312.76,23866.56,26933.29,11078.31,8625.46
1390106.5062,1370.1,11002.26,32597.97,31330.64,23895.08,26901.68,10940.22,8648.92
1390106.5082,1214.7,10930.68,32617.05,31353.53,23917.96,26899.48,10849.24,8671.28
1390106.5102,1540.14,10932.4,32631.31,31366.64,23919.59,26915.27,10858.63,8676.43
1390106.5122,2001.76,10970.16,32633.69,31360.58,23903.52,26953.61,10934.78,8661.6
1390106.5142,2522.75,11055.14,32626.2,31348.52,23878.96,26978.31,11053.66,8639.86
1390106.5162,2761.08,11133.39,32621.34,31332.83,23868.85,27000.57,11159.04,8628.94
1390106.5182,2674.63,11178.59,32613.47,31326.58,23862.17,27001.0,11201.81,8622.79
1390106.5202,2123.79,11136.34,32595.5,31316.76,23859.17,26946.36,11119.18,8620.55
1390106.5222,1525.12,11035.16,32592.06,31326.15,23873.67,26905.35,10984.42,8636.05
1390106.5242,1199.67,10942.27,32606.27,31351.09,23902.8,26888.56,10870.89,8660.51
1390106.5262,1394.22,10920.1,32624.87,31369.88,23916.15,26904.44,10835.46,8670.0
1390106.5282,1818.08,10943.6,32627.2,31363.2,23907.47,26926.09,10889.67,8664.18
1390106.5302,2361.15,11028.24,32628.68,31358.53,23898.03,26961.66,11010.46,8655.69
1390106.5322,2706.1,11115.03,32621.44,31342.8,23880.96,26987.03,11130.95,8640.62
1390106.5342,2744.91,11169.05,32607.89,31330.45,23868.85,26996.76,11201.14,8628.8
1390106.5362,2339.03,11166.0,32601.74,31327.54,23873.76,26973.68,11167.29,8628.37
1390106.5382,1713.32,11085.18,32601.31,31335.88,23890.83,26934.1,11043.31,8643.53
1390106.5402,1255.94,10978.51,32606.99,31343.23,23909.24,26898.82,10906.51,8664.75
1390106.5422,1283.6,10922.96,32612.71,31350.76,23915.1,26893.48,10836.13,8673.19
1390106.5442,1657.39,10933.45,32619.77,31351.24,23913.24,26916.7,10870.27,8674.1
1390106.5462,2175.14,10993.1,32620.43,31347.28,23901.85,26944.78,10966.92,8658.36
1390106.5482,2613.59,11079.74,32608.99,31332.78,23877.43,26986.79,11092.09,8633.57
1390106.5502,2769.04,11148.17,32604.65,31326.11,23865.13,27015.4,11190.23,8623.08
1390106.5522,2526.71,11176.64,32600.84,31328.82,23864.51,27000.48,11198.95,8622.74
1390106.5542,1919.65,11112.31,32594.06,31330.49,23872.57,26932.77,11089.18,8630.94
1390106.5562,1378.73,11008.45,32606.41,31345.18,23894.46,26896.0,10950.23,8656.69
1390106.5582,1226.85,10931.78,32617.38,31360.73,23909.52,26887.85,10850.76,8672.52
1390106.5602,1514.01,10920.24,32613.95,31352.14,23903.56,26901.87,10853.77,8666.18
1390106.5622,1983.45,10953.62,32609.75,31335.41,23890.74,26929.43,10926.87,8647.25
1390106.5642,2484.75,11038.83,32606.27,31327.63,23877.1,26965.34,11039.16,8632.57
1390106.5662,2742.96,11117.6,32604.03,31322.53,23868.04,26993.66,11141.97,8624.6
1390106.5682,2651.64,11161.14,32593.87,31315.0,23856.79,26990.51,11183.02,8614.92
1390106.5702,2123.79,11124.76,32579.43,31306.18,23853.97,26947.88,11109.54,8613.78
1390106.5722,1519.35,11035.16,32589.11,31317.09,23881.06,26913.55,10983.8,8637.24
1390106.5742,1215.46,10941.55,32604.32,31333.02,23903.9,26901.3,10867.07,8658.84
1390106.5762,1395.56,10914.14,32609.85,31338.98,23897.79,26906.88,10829.88,8654.83
1390106.5782,1812.03,10926.2,32605.7,31329.35,23881.1,26918.46,10866.12,8634.04
1390106.5802,2336.55,10999.39,32603.94,31323.72,23864.08,26947.41,10975.55,8615.97
1390106.5822,2686.26,11078.07,32587.87,31305.27,23839.43,26975.21,11093.0,8598.23
1390106.5842,2719.07,11134.05,32576.8,31295.59,23827.79,26980.59,11162.66,8589.79
1390106.5862,2321.96,11134.44,32572.23,31299.07,23834.99,26951.98,11135.05,8598.95
1390106.5882,1690.05,11056.52,32578.14,31310.61,23860.17,26913.79,11018.56,8623.36
1390106.5902,1239.82,10947.28,32585.67,31322.05,23883.82,26887.13,10884.52,8644.2
1390106.5922,1269.29,10895.83,32591.73,31326.73,23889.45,26884.32,10818.82,8645.92
1390106.5942,1641.94,10909.37,32605.6,31331.69,23892.36,26917.27,10852.24,8649.64
1390106.5962,2170.32,10977.13,32608.8,31329.35,23877.86,26958.04,10951.66,8636.67
1390106.5982,2605.49,11064.24,32606.46,31316.43,23858.26,26992.13,11074.02,8618.4
1390106.6002,2766.8,11132.0,32600.93,31307.51,23844.34,27010.54,11168.91,8607.01
1390106.6022,2507.35,11145.78,32587.2,31304.41,23838.24,26993.75,11173.54,8601.09
1390106.6042,1909.07,11086.51,32572.13,31304.08,23843.96,26929.81,11069.97,8604.91
1390106.6062,1343.63,10971.69,32568.89,31308.61,23860.89,26883.56,10919.0,8619.83
1390106.6082,1207.02,10901.98,32581.76,31325.77,23877.53,26871.4,10820.1,8637.24
1390106.6102,1488.64,10893.87,32595.54,31333.74,23886.4,26896.15,10822.73,8643.44
1390106.6122,1994.85,10952.52,32608.8,31340.94,23886.64,26944.12,10915.33,8642.58
1390106.6142,2480.98,11036.25,32608.94,31330.83,23866.85,26982.07,11034.3,8626.13
1390106.6162,2754.59,11114.31,32596.5,31311.32,23841.53,27004.25,11145.55,8604.48
1390106.6182,2636.62,11147.21,32583.15,31305.89,23833.95,26991.28,11190.27,8595.52
1390106.6202,2139.85,11122.42,32575.56,31307.65,23840.53,26957.13,11125.33,8603.91
1390106.6222,1504.42,11017.66,32573.66,31309.56,23857.5,26909.02,10977.03,8623.84
1390106.6242,1209.12,10928.06,32590.44,31327.92,23879.91,26878.26,10851.34,8647.4
1390106.6262,1358.99,10900.26,32603.6,31339.94,23891.12,26894.14,10816.77,8653.31
1390106.6282,1817.51,10932.21,32606.03,31343.89,23885.59,26943.73,10884.05,8645.54
1390106.6302,2327.73,11004.88,32606.75,31337.88,23870.52,26990.32,10995.82,8629.42
1390106.6322,2703.71,11080.79,32591.39,31313.38,23844.82,27008.82,11103.97,8603.05
1390106.6342,2710.01,11130.19,32583.48,31302.12,23835.9,26992.28,11170.63,8590.99
1390106.6362,2351.81,11137.06,32578.14,31303.7,23836.09,26966.29,11139.11,8592.65
1390106.6382,1688.53,11048.84,32574.32,31302.84,23849.06,26924.42,11010.46,8605.2
1390106.6402,1263.57,10945.7,32588.3,31314.52,23871.95,26889.9,10881.57,8629.85
1390106.6422,1267.81,10900.4,32609.13,31331.69,23892.07,26877.93,10822.15,8654.69
1390106.6442,1667.45,10921.29,32621.82,31343.75,23896.79,26908.93,10861.06,8660.13
1390106.6462,2159.45,10974.41,32616.24,31336.26,23879.63,26945.4,10956.34,8643.1
1390106.6482,2617.17,11056.14,32601.07,31319.86,23852.78,26976.64,11072.11,8617.69
1390106.6502,2748.92,11117.89,32589.53,31304.84,23839.95,26992.66,11151.98,8601.33
1390106.6522,2532.58,11148.07,32589.25,31310.37,23840.95,26979.97,11164.0,8602.14
1390106.6542,1916.55,11094.71,32587.1,31312.85,23852.88,26928.81,11067.92,8616.11
1390106.6562,1378.25,10991.38,32597.21,31323.34,23877.29,26892.38,10927.11,8640.0
1390106.6582,1221.61,10921.96,32614.38,31342.41,23900.51,26883.7,10833.79,8662.61
1390106.6602,1521.97,10920.43,32631.12,31360.11,23909.81,26904.97,10837.46,8672.24
1390106.6622,2001.24,10974.6,32640.27,31361.3,23904.95,26953.7,10926.68,8665.13
1390106.6642,2505.59,11054.61,32630.21,31350.62,23882.87,26990.46,11045.89,8642.67
1390106.6662,2755.79,11122.61,32610.32,31324.06,23854.4,27006.92,11151.41,8617.35
1390106.6682,2652.12,11152.32,32596.4,31309.56,23840.1,27002.0,11192.9,8603.53
1390106.6702,2134.8,11116.41,32576.04,31298.69,23833.9,26951.84,11122.47,8597.8
1390106.6722,1505.47,11008.22,32572.61,31297.02,23849.11,26903.73,10980.99,8612.3
1390106.6742,1199.67,10917.47,32582.57,31306.65,23867.71,26885.66,10866.79,8630.28
1390106.6762,1361.89,10892.06,32600.69,31326.68,23883.3,26900.2,10834.03,8641.29
1390106.6782,1816.51,10932.97,32616.71,31340.03,23889.74,26948.6,10910.89,8645.2
1390106.6802,2321.29,10998.54,32608.13,31335.45,23869.23,26986.27,11019.23,8627.75
1390106.6822,2681.59,11074.74,32585.0,31308.23,23838.28,27005.44,11124.18,8594.18
1390106.6842,2692.13,11117.13,32570.13,31291.01,23825.31,27007.49,11186.08,8578.92
1390106.6862,2329.25,11121.89,32565.26,31286.77,23825.22,26967.91,11159.71,8580.07
1390106.6882,1671.36,11032.06,32562.93,31290.82,23839.52,26928.48,11028.1,8596.95
1390106.6902,1252.94,10941.03,32581.05,31316.19,23874.81,26912.6,10910.04,8628.99
1390106.6922,1259.95,10903.26,32608.56,31343.32,23898.51,26923.95,10854.39,8656.69
1390106.6942,1658.96,10924.77,32617.81,31347.95,23893.74,26944.83,10891.92,8656.65
1390106.6962,2144.05,10974.74,32612.42,31337.07,23873.38,26967.67,10979.61,8638.43
1390106.6982,2610.97,11065.91,32602.36,31319.24,23851.16,27000.05,11102.34,8618.4
1390106.7002,2738.86,11120.32,32585.67,31294.16,23833.33,27007.73,11184.69,8603.81
1390106.7022,2520.99,11146.02,32569.22,31284.53,23820.21,26975.21,11190.51,8592.08
1390106.7042,1893.57,11085.61,32562.5,31285.58,23829.08,26938.06,11081.27,8600.05
1390106.7062,1370.33,10988.0,32569.98,31304.98,23854.5,26909.64,10939.84,8623.03
1390106.7082,1201.58,10920.43,32594.97,31336.6,23884.68,26903.92,10847.86,8652.12
1390106.7102,1516.77,10917.0,32608.89,31351.14,23890.88,26919.42,10853.34,8656.36
1390106.7122,1971.86,10949.76,32607.46,31339.79,23880.96,26939.49,10919.14,8644.11
1390106.7142,2494.62,11037.26,32606.8,31326.82,23862.79,26971.53,11039.07,8629.7
1390106.7162,2737.81,11107.64,32594.54,31307.89,23844.72,26993.28,11145.07,8611.2
1390106.7182,2654.31,11143.64,32580.05,31292.35,23829.27,26989.22,11186.03,8596.95
1390106.7202,2117.92,11110.97,32567.74,31284.96,23833.47,26951.36,11119.08,8597.85
1390106.7222,1522.35,11023.57,32577.33,31305.6,23862.46,26918.41,10991.05,8627.22
1390106.7242,1202.25,10940.7,32598.88,31334.21,23892.31,26907.83,10879.95,8660.27
1390106.7262,1383.3,10919.67,32618.57,31349.66,23903.8,26920.89,10848.19,8670.24
1390106.7282,1803.16,10941.89,32625.73,31345.75,23897.32,26937.92,10896.73,8661.8
1390106.7302,2338.46,11017.71,32624.49,31343.99,23882.2,26976.78,11004.16,8646.01
1390106.7322,2692.89,11097.86,32610.61,31326.49,23858.88,27011.68,11116.79,8622.93
1390106.7342,2743.44,11151.55,32599.5,31317.24,23849.2,27031.14,11193.37,8611.87
1390106.7362,2347.33,11149.88,32586.01,31312.56,23843.29,26977.69,11163.52,8609.82
1390106.7382,1711.27,11062.19,32580.33,31310.75,23855.4,26899.29,11028.82,8619.36
1390106.7402,1260.23,10958.05,32594.11,31325.49,23881.44,26882.37,10896.16,8641.67
1390106.7422,1269.82,10897.45,32601.17,31342.8,23889.83,26877.98,10821.49,8649.21
1390106.7442,1625.54,10899.35,32599.83,31338.5,23881.25,26901.3,10843.09,8644.68
1390106.7462,2151.97,10963.97,32611.61,31336.41,23874.14,26938.58,10941.22,8637.24
1390106.7482,2600.57,11056.42,32611.8,31322.39,23861.7,26973.54,11066.25,8623.03
1390106.7502,2755.55,11119.75,32595.92,31306.03,23843.29,26991.94,11155.13,8607.44
1390106.7522,2520.61,11144.93,32581.0,31295.83,23835.85,26976.06,11168.62,8595.66
1390106.7542,1921.08,11087.28,32574.13,31296.11,23845.15,26929.91,11072.16,8608.1
1390106.7562,1372.91,10984.33,32581.91,31307.51,23868.56,26896.91,10936.17,8635.81
1390106.7582,1219.94,10908.8,32596.64,31321.34,23882.96,26893.43,10841.99,8650.26
1390106.7602,1506.71,10905.08,32607.7,31327.78,23885.11,26928.05,10842.9,8651.83
1390106.7622,1980.21,10949.33,32611.42,31325.25,23877.62,26974.11,10928.3,8641.2
1390106.7642,2485.32,11034.78,32609.47,31319.91,23862.56,27000.62,11042.02,8627.84
1390106.7662,2740.48,11105.4,32594.68,31304.46,23842.05,26991.04,11134.82,8608.82
1390106.7682,2655.65,11146.26,32582.67,31294.4,23833.18,26982.31,11179.97,8596.47
1390106.7702,2150.01,11124.33,32581.29,31302.6,23844.05,26956.9,11119.94,8609.44
1390106.7722,1533.7,11033.82,32580.62,31311.47,23862.32,26920.94,10984.52,8629.94
1390106.7742,1210.79,10937.31,32589.82,31327.06,23881.72,26900.01,10873.99,8650.83
1390106.7762,1389.79,10916.28,32607.51,31343.32,23893.74,26911.88,10850.0,8660.89
1390106.7782,1810.6,10938.6,32621.2,31349.23,23895.46,26945.88,10907.41,8658.65
1390106.7802,2320.48,10998.35,32608.32,31330.06,23866.94,26969.05,10999.44,8633.09
1390106.7822,2667.05,11067.77,32589.06,31297.74,23836.42,26986.13,11104.25,8603.96
1390106.7842,2714.06,11123.61,32574.32,31283.33,23821.26,26989.84,11178.59,8589.89
1390106.7862,2333.83,11124.33,32567.46,31286.53,23822.88,26962.95,11146.02,8595.09
1390106.7882,1707.98,11041.98,32564.74,31288.63,23837.38,26922.75,11026.43,8605.53
1390106.7902,1240.44,10925.2,32564.6,31292.16,23854.35,26891.14,10888.72,8618.07
1390106.7922,1262.62,10879.76,32577.71,31306.94,23866.27,26891.47,10825.35,8624.22
1390106.7942,1626.73,10896.87,32594.97,31326.77,23871.71,26924.28,10862.49,8628.42
1390106.7962,2159.41,10973.69,32613.47,31342.46,23872.52,26966.96,10977.32,8629.23
1390106.7982,2600.1,11060.72,32613.57,31334.59,23858.93,27005.39,11098.29,8619.4
1390106.8002,2768.95,11119.89,32588.39,31303.93,23833.71,27011.02,11181.83,8595.75
1390106.8022,2513.17,11125.61,32560.3,31277.99,23814.97,26984.98,11176.16,8581.11
1390106.8042,1917.31,11064.2,32546.52,31266.88,23816.11,26942.02,11069.49,8588.7
1390106.8062,1351.4,10957.96,32553.06,31276.18,23838.28,26911.36,10932.73,8611.87
1390106.8082,1217.65,10901.88,32577.42,31303.6,23865.04,26901.58,10852.1,8637.1
1390106.8102,1478.2,10890.53,32587.72,31314.04,23873.48,26904.97,10853.58,8642.44
1390106.8122,1967.48,10935.64,32591.82,31314.71,23866.42,26947.79,10929.16,8632.95
1390106.8142,2459.67,11016.8,32589.11,31309.51,23848.2,26984.79,11045.03,8615.3
1390106.8162,2745.01,11094.71,32576.71,31297.83,23826.51,26998.43,11153.17,8593.23
1390106.8182,2637.1,11128.81,32567.6,31291.54,23820.4,26997.38,11198.33,8589.32
1390106.8202,2158.74,11109.83,32563.59,31290.3,23827.08,26966.72,11141.54,8599.95
1390106.8222,1526.83,11011.22,32566.84,31292.63,23849.87,26930.86,11007.12,8619.83
1390106.8242,1222.99,10918.38,32576.95,31306.13,23870.04,26903.97,10880.09,8636.19
1390106.8262,1358.51,10889.15,32588.44,31322.44,23874.86,26903.44,10838.8,8642.25
1390106.8282,1805.54,10921.62,32598.59,31329.11,23870.14,26936.73,10902.36,8640.72
1390106.8302,2311.47,10992.24,32604.13,31324.63,23859.17,26977.88,11015.85,8631.37
1390106.8322,2699.09,11079.84,32597.31,31308.7,23838.67,27008.68,11131.57,8609.25
1390106.8342,2725.6,11135.1,32584.29,31293.97,23823.93,27024.89,11208.11,8595.13
1390106.8362,2367.31,11136.72,32566.69,31286.77,23816.02,26991.56,11178.73,8588.41
1390106.8382,1707.08,11049.56,32555.11,31278.61,23827.13,26945.4,11048.6,8597.66
1390106.8402,1273.54,10949.95,32565.98,31292.01,23851.68,26911.21,10916.52,8620.84
1390106.8422,1262.95,10901.6,32581.71,31311.18,23865.94,26901.82,10840.37,8636.43
1390106.8442,1646.71,10915.47,32596.54,31324.68,23868.52,26928.57,10870.74,8637.95
1390106.8462,2135.18,10970.98,32597.93,31324.58,23857.79,26965.24,10960.58,8626.08
1390106.8482,2598.48,11056.9,32591.97,31311.47,23838.95,26995.57,11077.17,8606.86
1390106.8502,2753.69,11121.85,32583.19,31295.73,23828.84,27011.3,11174.87,8596.14
1390106.8522,2542.16,11147.83,32571.27,31290.73,23822.36,26994.9,11187.6,8590.6
1390106.8542,1944.45,11100.01,32571.08,31295.97,23834.42,26959.47,11101.91,8603.05
1390106.8562,1397.75,10996.58,32579.43,31308.89,23859.89,26931.24,10966.45,8626.27
1390106.8582,1225.66,10918.48,32590.82,31321.24,23877.34,26923.33,10860.06,8642.58
1390106.8602,1508.38,10907.6,32602.22,31333.69,23881.15,26945.45,10856.34,8645.34
1390106.8622,1970.72,10953.86,32608.37,31338.89,23873.38,26969.96,10933.45,8640.39
1390106.8642,2469.92,11033.58,32601.74,31327.35,23854.16,26982.55,11048.37,8626.75
1390106.8662,2752.59,11116.7,32588.53,31312.04,23836.19,27010.97,11162.76,8612.06
1390106.8682,2669.48,11159.28,32579.57,31305.6,23831.08,27018.93,11212.06,8602.91
1390106.8702,2171.66,11132.38,32568.51,31295.02,23827.22,26977.35,11145.78,8600.67
1390106.8722,1553.39,11035.59,32570.65,31298.55,23852.49,26924.37,11003.54,8625.99
1390106.8742,1258.71,10963.49,32601.03,31327.87,23888.59,26913.07,10907.99,8661.75
1390106.8762,1407.58,10936.02,32617.95,31345.42,23900.32,26924.18,10873.89,8670.95
1390106.8782,1821.42,10943.37,32605.13,31328.21,23878.48,26942.4,10902.93,8645.01
1390106.8802,2311.47,10993.48,32594.88,31309.08,23848.92,26975.4,10990.48,8615.73
1390106.8822,2691.32,11079.36,32582.81,31298.97,23827.98,26997.38,11111.59,8596.14
1390106.8842,2723.5,11133.58,32573.42,31295.97,23821.79,27004.44,11187.32,8590.51
1390106.8862,2378.7,11143.73,32567.93,31296.07,23824.65,26974.49,11167.81,8594.75
1390106.8882,1721.95,11057.57,32565.74,31293.3,23842.72,26930.19,11044.12,8612.82
1390106.8902,1290.27,10965.3,32579.81,31311.9,23870.71,26910.4,10926.06,8639.38
1390106.8922,1275.21,10913.09,32595.11,31329.3,23887.64,26916.65,10856.68,8655.17
1390106.8942,1657.15,10924.53,32605.32,31329.21,23884.01,26942.02,10881.43,8652.64
1390106.8962,2133.75,10969.45,32609.13,31320.38,23870.38,26971.3,10967.3,8638.05
1390106.8982,2602.43,11054.18,32599.69,31307.65,23848.11,26989.18,11084.37,8616.21
1390106.9002,2750.3,11119.46,32591.35,31301.07,23837.0,27007.87,11173.92,8610.54
1390106.9022,2555.42,11157.28,32585.05,31305.46,23837.52,26997.86,11197.0,8609.96
1390106.9042,1938.72,11103.01,32578.47,31306.89,23850.01,26962.05,11104.59,8621.98
1390106.9062,1407.39,11007.31,32583.38,31317.62,23869.99,26931.72,10969.12,8641.2
1390106.9082,1211.21,10922.72,32588.39,31323.58,23876.62,26902.68,10863.78,8648.44
1390106.9102,1496.84,10899.74,32580.95,31318.1,23862.89,26908.07,10851.24,8637.24
1390106.9122,1941.92,10930.97,32581.48,31310.94,23850.83,26945.93,10922.15,8628.18
1390106.9142,2463.48,11021.76,32580.9,31305.94,23839.86,26983.79,11043.36,8613.21
1390106.9162,2719.21,11097.81,32576.14,31295.11,23828.89,27000.76,11150.84,8600.67
1390106.9182,2657.08,11140.3,32569.13,31290.68,23822.36,26978.78,11196.85,8590.22
1390106.9202,2140.9,11114.55,32559.83,31289.63,23826.7,26936.73,11133.43,8598.04
1390106.9222,1543.47,11023.81,32562.59,31300.5,23846.82,26904.4,11004.78,8620.98
1390106.9242,1206.21,10931.25,32578.47,31322.44,23872.76,26887.9,10884.24,8647.87
1390106.9262,1374.29,10901.31,32588.77,31334.21,23875.53,26897.82,10845.33,8650.07
1390106.9282,1779.75,10919.52,32592.73,31329.06,23868.99,26930.81,10896.68,8640.67
1390106.9302,2315.47,10997.06,32604.6,31327.3,23860.03,26970.68,11003.07,8632.09
1390106.9322,2689.08,11097.81,32608.42,31324.2,23851.06,27007.68,11133.48,8627.13
1390106.9342,2752.88,11157.23,32590.54,31309.94,23836.9,27027.18,11215.07,8614.59
1390106.9362,2370.69,11149.88,32565.79,31290.49,23825.74,26998.19,11184.69,8602.19
1390106.9382,1740.74,11068.25,32561.21,31290.73,23837.95,26950.55,11061.0,8612.54
1390106.9402,1273.35,10964.97,32570.99,31306.94,23862.08,26912.84,10923.58,8635.52
1390106.9422,1273.92,10917.28,32585.62,31328.63,23878.67,26902.87,10855.96,8652.74
1390106.9442,1630.45,10926.15,32591.92,31328.54,23879.34,26933.2,10880.76,8650.97
1390106.9462,2132.94,10976.75,32591.78,31318.19,23864.22,26964.91,10961.53,8633.47
1390106.9482,2580.6,11059.81,32585.67,31308.27,23842.39,26992.61,11084.46,8615.4
1390106.9502,2745.1,11115.12,32570.51,31293.11,23828.18,26992.71,11173.54,8598.14
1390106.9522,2533.1,11147.07,32568.36,31294.21,23829.65,26984.74,11195.57,8597.42
1390106.9542,1940.92,11090.23,32561.59,31296.54,23835.66,26945.02,11101.77,8604.34
1390106.9562,1367.76,10976.46,32555.82,31297.4,23844.58,26896.77,10949.18,8612.73
1390106.9582,1197.82,10901.6,32568.94,31314.14,23863.18,26883.08,10844.57,8628.13
1390106.9602,1484.58,10901.88,32585.1,31324.15,23872.19,26909.16,10846.81,8637.48
1390106.9622,1961.28,10948.13,32596.4,31328.73,23866.42,26952.56,10930.06,8638.38
1390106.9642,2470.78,11034.87,32596.07,31324.72,23850.16,26993.18,11051.42,8624.84
1390106.9662,2739.24,11102.96,32586.1,31308.99,23829.8,27017.45,11155.56,8607.05
1390106.9682,2665.71,11142.49,32576.28,31301.65,23823.65,27012.07,11197.52,8598.23
1390106.9702,2162.36,11115.7,32566.46,31299.26,23828.65,26970.53,11130.0,8602.76
1390106.9722,1543.52,11019.37,32560.54,31292.73,23838.05,26921.37,10991.72,8611.78
1390106.9742,1212.88,10924.63,32575.33,31310.99,23861.7,26898.91,10866.21,8637.57
1390106.9762,1374.44,10904.36,32590.3,31330.78,23872.95,26911.93,10833.65,8644.49
1390106.9782,1787.28,10924.25,32594.35,31324.53,23863.08,26949.46,10886.34,8636.67
1390106.9802,2314.9,11000.35,32598.64,31319.43,23848.44,26972.58,10996.96,8625.6
1390106.9822,2672.58,11076.74,32587.06,31301.69,23824.84,26992.13,11110.45,8602.1
1390106.9842,2731.47,11129.76,32572.8,31287.58,23810.72,26991.42,11184.6,8591.94
1390106.9862,2361.82,11127.52,32560.26,31282.14,23810.77,26959.47,11149.79,8591.61
1390106.9882,1741.36,11055.38,32557.01,31284.38,23827.75,26913.84,11032.01,8608.01
1390106.9903,1278.26,10956.34,32580.19,31307.37,23863.22,26895.96,10905.41,8642.82
1390106.9923,1296.66,10917.14,32606.03,31334.5,23887.88,26898.67,10843.8,8665.47
1390106.9943,1642.04,10920.76,32609.75,31338.08,23885.06,26929.81,10870.74,8660.32
1390106.9963,2148.82,10975.36,32605.89,31332.88,23866.08,26971.15,10965.54,8640.67
1390106.9983,2579.21,11050.85,32590.92,31313.38,23838.48,26995.04,11074.26,8615.45
1390107.0003,2763.89,11120.61,32578.14,31296.16,23816.54,27008.97,11169.86,8596.28
1390107.0023,2538.63,11145.78,32570.56,31296.45,23810.82,26986.55,11183.69,8594.04
1390107.0043,1955.22,11088.42,32561.78,31293.59,23818.88,26936.01,11084.51,8597.52
1390107.0063,1375.1,10979.03,32568.98,31304.65,23844.29,26901.2,10943.7,8622.5
1390107.0083,1229.81,10913.42,32586.96,31328.73,23869.66,26897.86,10853.48,8648.49
1390107.0103,1487.06,10903.41,32598.59,31336.36,23877.1,26922.61,10856.44,8651.93
1390107.0123,1965.05,10944.56,32600.6,31327.54,23861.36,26953.51,10931.73,8635.95
1390107.0143,2446.6,11019.99,32596.16,31311.66,23840.05,26982.74,11039.78,8616.83
1390107.0163,2746.3,11106.68,32587.25,31303.08,23822.88,27010.73,11154.46,8606.15
1390107.0183,2662.71,11147.6,32578.19,31298.31,23819.02,27008.25,11202.24,8601.95
1390107.0203,2189.45,11125.04,32563.45,31292.49,23819.4,26977.16,11145.78,8597.95
1390107.0223,1547.86,11026.1,32560.64,31292.82,23841.34,26943.45,11022.86,8611.16
1390107.0243,1239.4,10943.56,32578.04,31312.71,23869.04,26927.14,10914.28,8635.57
1390107.0263,1357.84,10912.32,32590.44,31323.34,23879.2,26930.72,10866.21,8646.92
1390107.0283,1804.45,10943.99,32603.7,31330.35,23878.24,26956.18,10919.19,8649.54
1390107.0303,2313.09,11012.7,32610.99,31332.02,23868.99,27002.1,11024.29,8642.72
1390107.0323,2697.37,11091.0,32595.4,31319.24,23843.91,27022.89,11126.0,8617.35
